time (s)	coil I (A)	last det (V)	int current (uC)
8378.808785	1.087669	0.456893	462.259125
8378.809754	1.564611	0.456893	1978.366821
8378.810827	1.549351	0.456893	3640.820068
8378.811755	1.507500	0.456893	5039.780273
8378.812629	1.467279	0.456893	6322.182129
8378.813710	1.422693	0.456893	7860.113281
8378.814706	1.382369	0.456893	9236.953125
8378.815602	1.348198	0.456893	10444.938477
8378.816592	0.729906	0.456893	11167.544922
8378.817649	0.101012	0.456893	11274.314453
8378.818558	0.097980	0.456893	11363.377930
8378.819427	0.098027	0.456893	11448.563477
8378.820529	0.098082	0.456893	11556.650391
8378.821494	0.097969	0.456893	11651.190430
8378.822357	0.097972	0.456893	11735.740234
8378.823423	0.098046	0.456893	11840.256836
8378.824448	0.097961	0.456893	11940.666992
8378.825327	0.098031	0.456893	12026.835937
8378.826227	0.098119	0.456893	12115.142578
8379.879991	1.188922	0.406092	643.206909
8379.881039	1.573707	0.406092	2292.452148
8379.881914	1.549644	0.406092	3648.390137
8379.882849	1.507720	0.406092	5058.108398
8379.883916	1.460002	0.406092	6615.931152
8379.884871	1.420239	0.406092	7972.259766
8379.885745	1.384563	0.406092	9182.368164
8379.886794	1.344811	0.406092	10593.074219
8379.887810	0.554667	0.406092	11156.615234
8379.888699	0.100455	0.406092	11245.919922
8379.889656	0.098013	0.406092	11339.717773
8379.890708	0.097980	0.406092	11442.791992
8379.891633	0.097928	0.406092	11533.375977
8379.892495	0.098005	0.406092	11617.856445
8379.893559	0.098104	0.406092	11722.239258
8379.894535	0.097939	0.406092	11817.828125
8379.895425	0.097972	0.406092	11905.023437
8379.896394	0.098046	0.406092	12000.029297
8379.897443	0.097943	0.406092	12102.771484
8380.868545	1.063184	0.488991	451.852997
8380.869524	1.563607	0.488991	1982.624390
8380.870590	1.549962	0.488991	3634.884033
8380.871508	1.508478	0.488991	5019.666504
8380.872370	1.468799	0.488991	6285.770996
8380.873425	1.424597	0.488991	7788.720703
8380.874432	1.383955	0.488991	9182.363281
8380.875323	1.349978	0.488991	10385.193359
8380.876299	0.791473	0.488991	11157.671875
8380.877354	0.102777	0.488991	11266.101562
8380.878272	0.097983	0.488991	11356.050781
8380.879136	0.098038	0.488991	11440.755859
8380.880223	0.098130	0.488991	11547.422852
8380.881209	0.097965	0.488991	11644.016602
8380.882103	0.098013	0.488991	11731.639648
8380.883082	0.098192	0.488991	11827.769531
8380.884142	0.098079	0.488991	11931.732422
8380.885040	0.098093	0.488991	12019.820312
8380.885904	0.098013	0.488991	12104.502930
8381.934092	1.131863	0.451495	571.590759
8381.934970	1.569148	0.451495	1949.302734
8381.935838	1.558634	0.451495	3302.197266
8381.936864	1.513847	0.451495	4855.403809
8381.937830	1.469564	0.451495	6275.002930
8381.938750	1.431189	0.451495	7591.696777
8381.939618	1.394004	0.451495	8801.692383
8381.940726	1.353655	0.451495	10301.541992
8381.941614	1.013225	0.451495	11201.286133
8381.942471	0.139310	0.451495	11320.674805
8381.943555	0.097954	0.451495	11426.857422
8381.944527	0.098005	0.451495	11522.118164
8381.945405	0.098005	0.451495	11608.166992
8381.946284	0.098075	0.451495	11694.375000
8381.947396	0.098068	0.451495	11803.425781
8381.948289	0.098071	0.451495	11891.003906
8381.949154	0.098079	0.451495	11975.841797
8381.950250	0.098115	0.451495	12083.375977
8381.951207	0.097998	0.451495	12177.160156
8382.926263	1.060884	0.523638	446.632050
8382.927327	1.569789	0.523638	2116.887207
8382.928212	1.553881	0.523638	3492.071533
8382.929081	1.515033	0.523638	4808.635254
8382.929974	1.473135	0.523638	6124.144531
8382.931010	1.430182	0.523638	7605.812988
8382.931912	1.393517	0.523638	8862.765625
8382.932795	1.359324	0.523638	10063.048828
8382.933785	1.058767	0.523638	11111.228516
8382.934716	0.140515	0.523638	11242.047852
8382.935631	0.097943	0.523638	11331.666016
8382.936504	0.097932	0.523638	11417.161133
8382.937541	0.097969	0.523638	11518.754883
8382.938417	0.098005	0.523638	11604.607422
8382.939293	0.098013	0.523638	11690.466797
8382.940281	0.098104	0.523638	11787.393555
8382.941230	0.097987	0.523638	11880.382812
8382.942137	0.098082	0.523638	11969.343750
8382.943016	0.098086	0.523638	12055.561523
8383.988159	1.060613	0.494336	449.699829
8383.989083	1.562970	0.494336	1893.884155
8383.990191	1.550339	0.494336	3611.660156
8383.991129	1.508002	0.494336	5026.166016
8383.991991	1.468733	0.494336	6292.213867
8383.993024	1.425377	0.494336	7764.628418
8383.994043	1.384127	0.494336	9175.053711
8383.994938	1.349667	0.494336	10383.005859
8383.995910	0.800197	0.494336	11160.796875
8383.996974	0.102543	0.494336	11269.902344
8383.997891	0.097961	0.494336	11359.733398
8383.998753	0.097965	0.494336	11444.179687
8383.999844	0.098141	0.494336	11551.250977
8384.000839	0.097961	0.494336	11648.722656
8384.001726	0.097976	0.494336	11735.626953
8384.002698	0.098079	0.494336	11830.958984
8384.003763	0.098013	0.494336	11935.342773
8384.004673	0.098101	0.494336	12024.614258
8384.005538	0.098038	0.494336	12109.416992
8384.984034	1.115391	0.569726	508.618134
8384.984917	1.566694	0.569726	1892.009277
8384.985913	1.555056	0.569726	3440.845215
8384.986968	1.508185	0.569726	5031.980469
8384.987881	1.466700	0.569726	6371.078125
8384.988744	1.428977	0.569726	7604.285156
8384.989851	1.385402	0.569726	9137.924805
8384.990856	1.346689	0.569726	10491.347656
8384.991744	0.814878	0.569726	11214.958984
8384.992749	0.108754	0.569726	11324.256836
8384.993790	0.097983	0.569726	11426.257812
8384.994658	0.098057	0.569726	11511.371094
8384.995544	0.098104	0.569726	11598.291016
8384.996628	0.098016	0.569726	11704.541016
8384.997590	0.098101	0.569726	11798.914062
8384.998458	0.098013	0.569726	11883.989258
8384.999471	0.098126	0.569726	11983.390625
8385.000510	0.098038	0.569726	12085.252930
8385.001401	0.098068	0.569726	12172.630859
8386.042378	1.116083	0.531909	564.737915
8386.043439	1.572165	0.531909	2232.805664
8386.044365	1.548267	0.531909	3666.500488
8386.045231	1.508478	0.531909	4972.842285
8386.046308	1.461478	0.531909	6546.854492
8386.047309	1.419284	0.531909	7967.557129
8386.048206	1.383256	0.531909	9208.337891
8386.049187	1.346096	0.531909	10528.858398
8386.050253	0.556208	0.531909	11121.776367
8386.051164	0.099825	0.531909	11212.717773
8386.052026	0.098027	0.531909	11297.217773
8386.053119	0.098207	0.531909	11404.557617
8386.054085	0.097910	0.531909	11499.138672
8386.054951	0.097976	0.531909	11583.986328
8386.055981	0.098134	0.531909	11685.063477
8386.057020	0.097991	0.531909	11786.875977
8386.057905	0.098005	0.531909	11873.610352
8386.058781	0.098137	0.531909	11959.578125
8386.059872	0.098174	0.531909	12066.685547
8387.041716	1.059587	0.624649	443.967163
8387.042788	1.570166	0.624649	2127.185059
8387.043806	1.547263	0.624649	3702.299072
8387.044702	1.506973	0.624649	5052.546875
8387.045686	1.463687	0.624649	6492.814453
8387.046723	1.419906	0.624649	7965.256836
8387.047637	1.382856	0.624649	9229.187500
8387.048508	1.348315	0.624649	10403.570312
8387.049598	0.658352	0.624649	11121.173828
8387.050593	0.100159	0.624649	11220.832031
8387.051472	0.097994	0.624649	11306.968750
8387.052478	0.098064	0.624649	11405.621094
8387.053537	0.097965	0.624649	11509.366211
8387.054426	0.097980	0.624649	11596.469727
8387.055283	0.098086	0.624649	11680.529297
8387.056381	0.098046	0.624649	11788.183594
8387.057337	0.097943	0.624649	11881.817383
8387.058201	0.098042	0.624649	11966.525391
8387.059239	0.098060	0.624649	12068.311523
8388.099577	1.095187	0.570286	532.260803
8388.100562	1.571327	0.570286	2080.017822
8388.101491	1.552207	0.570286	3522.018066
8388.102356	1.513641	0.570286	4831.317871
8388.103375	1.468597	0.570286	6327.818359
8388.104276	1.429343	0.570286	7615.656738
8388.105186	1.392206	0.570286	8882.564453
8388.106068	1.356643	0.570286	10079.124023
8388.107110	0.995233	0.570286	11116.157227
8388.107999	0.131173	0.570286	11232.770508
8388.108875	0.097841	0.570286	11318.478516
8388.109859	0.097972	0.570286	11414.883789
8388.110789	0.097954	0.570286	11505.981445
8388.111707	0.098027	0.570286	11595.970703
8388.112569	0.097939	0.570286	11680.394531
8388.113607	0.097965	0.570286	11782.082031
8388.114490	0.097899	0.570286	11868.527344
8388.115355	0.097998	0.570286	11953.295898
8388.116282	0.097980	0.570286	12044.123047
8389.094332	1.067131	0.638365	453.530792
8389.095264	1.562662	0.638365	1909.932129
8389.096334	1.550775	0.638365	3569.261719
8389.097274	1.508566	0.638365	4987.313477
8389.098143	1.469169	0.638365	6264.020996
8389.099204	1.424905	0.638365	7775.844727
8389.100224	1.383666	0.638365	9187.183594
8389.101113	1.349414	0.638365	10386.812500
8389.102097	0.787804	0.638365	11162.011719
8389.103139	0.103198	0.638365	11269.543945
8389.104057	0.098002	0.638365	11359.509766
8389.104915	0.098038	0.638365	11443.626953
8389.105972	0.098112	0.638365	11547.331055
8389.106980	0.098031	0.638365	11646.146484
8389.107853	0.098009	0.638365	11731.708008
8389.108830	0.098097	0.638365	11827.548828
8389.109887	0.098159	0.638365	11931.302734
8389.110794	0.097917	0.638365	12020.114258
8389.111656	0.097991	0.638365	12104.582031
8390.163913	1.077334	0.586541	466.485657
8390.164781	1.563834	0.586541	1823.893799
8390.165840	1.553064	0.586541	3468.588623
8390.166851	1.507811	0.586541	4992.985840
8390.167752	1.467898	0.586541	6315.562012
8390.168726	1.427076	0.586541	7705.534180
8390.169795	1.384098	0.586541	9185.134766
8390.170709	1.348531	0.586541	10417.692383
8390.171584	0.858446	0.586541	11168.833008
8390.172689	0.103865	0.586541	11283.603516
8390.173649	0.098035	0.586541	11377.716797
8390.174534	0.098020	0.586541	11464.464844
8390.175563	0.098049	0.586541	11565.357422
8390.176608	0.098097	0.586541	11667.869141
8390.177495	0.098024	0.586541	11754.816406
8390.178378	0.097976	0.586541	11841.329102
8390.179461	0.097943	0.586541	11947.401367
8390.180408	0.097998	0.586541	12040.205078
8390.181268	0.098156	0.586541	12124.619141
8391.149577	1.139048	0.525209	569.523865
8391.150495	1.570518	0.525209	2011.259033
8391.151366	1.555602	0.525209	3366.188232
8391.152421	1.509360	0.525209	4958.563477
8391.153431	1.463844	0.525209	6437.045898
8391.154328	1.426619	0.525209	7716.722656
8391.155316	1.386951	0.525209	9087.030273
8391.156373	1.346049	0.525209	10509.803711
8391.157293	0.749985	0.525209	11199.790039
8391.158161	0.107010	0.525209	11292.674805
8391.159251	0.098093	0.525209	11399.596680
8391.160214	0.098002	0.525209	11493.972656
8391.161096	0.098057	0.525209	11580.458984
8391.162094	0.098086	0.525209	11678.348633
8391.163144	0.098101	0.525209	11781.354492
8391.164036	0.098009	0.525209	11868.778320
8391.164913	0.098126	0.525209	11954.834961
8391.165999	0.098049	0.525209	12061.316406
8391.166956	0.098009	0.525209	12155.111328
8392.232989	1.143735	0.626530	583.304993
8392.233884	1.569825	0.626530	1988.298828
8392.234759	1.556594	0.626530	3350.318848
8392.235782	1.511613	0.626530	4896.698242
8392.236783	1.466180	0.626530	6364.344727
8392.237666	1.428908	0.626530	7626.070312
8392.238537	1.392045	0.626530	8838.541016
8392.239627	1.351670	0.626530	10311.861328
8392.240542	0.938130	0.626530	11170.250000
8392.241421	0.123190	0.626530	11278.534180
8392.242410	0.097954	0.626530	11375.411133
8392.243402	0.098053	0.626530	11472.679687
8392.244296	0.098027	0.626530	11560.316406
8392.245162	0.098038	0.626530	11645.217773
8392.246248	0.098013	0.626530	11751.659180
8392.247147	0.097987	0.626530	11839.750000
8392.248016	0.097877	0.626530	11924.805664
8392.249022	0.098038	0.626530	12023.432617
8392.250027	0.097925	0.626530	12121.846680
8393.202219	1.158120	0.477434	606.854919
8393.203235	1.572788	0.477434	2204.807617
8393.204119	1.550771	0.477434	3575.689453
8393.205106	1.507196	0.477434	5063.291992
8393.206155	1.460226	0.477434	6595.068848
8393.207056	1.421737	0.477434	7876.053711
8393.207930	1.385229	0.477434	9086.744141
8393.209009	1.345005	0.477434	10538.003906
8393.209995	0.621709	0.477434	11151.008789
8393.210885	0.101960	0.477434	11241.753906
8393.211878	0.098071	0.477434	11339.138672
8393.212938	0.097987	0.477434	11443.004883
8393.213830	0.097961	0.477434	11530.386719
8393.214688	0.097998	0.477434	11614.468750
8393.215793	0.098167	0.477434	11722.942383
8393.216759	0.097958	0.477434	11817.569336
8393.217626	0.097961	0.477434	11902.501953
8393.218665	0.098038	0.477434	12004.364258
8393.219700	0.098046	0.477434	12105.841797
8394.288138	1.111073	0.602730	561.091797
8394.289200	1.572048	0.602730	2230.606934
8394.290136	1.547344	0.602730	3678.920654
8394.291008	1.507471	0.602730	4993.435059
8394.292079	1.460131	0.602730	6557.234863
8394.293085	1.418342	0.602730	7984.086914
8394.293981	1.382296	0.602730	9222.624023
8394.294951	1.345455	0.602730	10527.715820
8394.296010	0.561764	0.602730	11122.624023
8394.296924	0.099778	0.602730	11213.821289
8394.297787	0.097991	0.602730	11298.387695
8394.298870	0.098159	0.602730	11404.694336
8394.299857	0.097991	0.602730	11501.411133
8394.300740	0.098024	0.602730	11587.965820
8394.301727	0.098035	0.602730	11684.725586
8394.302775	0.097969	0.602730	11787.396484
8394.303664	0.097987	0.602730	11874.506836
8394.304523	0.097987	0.602730	11958.677734
8394.305611	0.098005	0.602730	12065.307617
8395.259411	1.133496	0.530176	570.148560
8395.260297	1.569580	0.530176	1960.796509
8395.261191	1.555151	0.530176	3351.101807
8395.262287	1.507888	0.530176	5003.747070
8395.263250	1.464899	0.530176	6414.444336
8395.264124	1.427725	0.530176	7662.275391
8395.265163	1.385966	0.530176	9102.293945
8395.266185	1.346924	0.530176	10478.849609
8395.267078	0.810732	0.530176	11202.833984
8395.268016	0.111079	0.530176	11307.026367
8395.269059	0.098082	0.530176	11409.326172
8395.269996	0.098075	0.530176	11501.222656
8395.270862	0.098009	0.530176	11586.098633
8395.271905	0.098104	0.530176	11688.420898
8395.272928	0.098027	0.530176	11788.703125
8395.273797	0.098009	0.530176	11873.873047
8395.274744	0.098112	0.530176	11966.785156
8395.275788	0.098101	0.530176	12069.202148
8395.276707	0.098035	0.530176	12159.295898
8396.338255	1.201231	0.629402	687.103882
8396.339305	1.572792	0.629402	2338.535156
8396.340194	1.546941	0.629402	3713.765625
8396.341082	1.505629	0.629402	5050.763672
8396.342175	1.458593	0.629402	6645.005371
8396.343131	1.418507	0.629402	8001.098145
8396.343994	1.383435	0.629402	9195.002930
8396.345023	1.344272	0.629402	10578.259766
8396.346072	0.546248	0.629402	11151.273437
8396.346953	0.100312	0.629402	11239.648437
8396.347885	0.098097	0.629402	11331.075195
8396.348958	0.098046	0.629402	11436.278320
8396.349885	0.098005	0.629402	11527.128906
8396.350751	0.098024	0.629402	11612.017578
8396.351777	0.097998	0.629402	11712.563477
8396.352798	0.097969	0.629402	11812.589844
8396.353688	0.098071	0.629402	11899.873047
8396.354638	0.098057	0.629402	11993.027344
8396.355692	0.098079	0.629402	12096.402344
8397.323718	1.072646	0.503734	459.092712
8397.324590	1.563735	0.503734	1822.669922
8397.325585	1.556587	0.503734	3371.473877
8397.326525	1.514813	0.503734	4795.398437
8397.327402	1.474746	0.503734	6088.750488
8397.328365	1.434232	0.503734	7469.916016
8397.329407	1.391818	0.503734	8920.190430
8397.330285	1.357072	0.503734	10111.699219
8397.331149	1.139813	0.503734	11096.498047
8397.332199	0.142723	0.503734	11246.357422
8397.333136	0.097892	0.503734	11338.082031
8397.334016	0.097958	0.503734	11424.285156
8397.334959	0.097991	0.503734	11516.690430
8397.336000	0.097896	0.503734	11618.599609
8397.336894	0.097910	0.503734	11706.130859
8397.337755	0.098046	0.503734	11790.547852
8397.338804	0.098013	0.503734	11893.363281
8397.339750	0.098020	0.503734	11986.089844
8397.340621	0.097954	0.503734	12071.408203
8398.387124	1.057705	0.616668	445.293884
8398.388149	1.567972	0.616668	2052.465576
8398.389196	1.547769	0.616668	3672.979248
8398.390090	1.507291	0.616668	5020.497559
8398.391009	1.465499	0.616668	6367.291504
8398.392081	1.420862	0.616668	7890.455566
8398.393031	1.382802	0.616668	9204.117187
8398.393908	1.348498	0.616668	10386.750000
8398.394975	0.682804	0.616668	11115.301758
8398.395981	0.100250	0.616668	11216.153320
8398.396875	0.097972	0.616668	11303.740234
8398.397841	0.097936	0.616668	11398.346680
8398.398893	0.098016	0.616668	11501.459961
8398.399820	0.097998	0.616668	11592.303711
8398.400681	0.098020	0.616668	11676.699219
8398.401756	0.098038	0.616668	11782.090820
8398.402747	0.097954	0.616668	11879.163086
8398.403625	0.097896	0.616668	11965.115234
8398.404614	0.098046	0.616668	12062.082031
8399.382990	1.075712	0.559047	472.237457
8399.383849	1.563695	0.559047	1815.451538
8399.384933	1.552551	0.559047	3498.416992
8399.385937	1.507709	0.559047	5012.156250
8399.386811	1.467913	0.559047	6295.111816
8399.387787	1.427120	0.559047	7687.981445
8399.388847	1.384189	0.559047	9155.222656
8399.389756	1.348868	0.559047	10381.343750
8399.390640	0.885806	0.559047	11164.395508
8399.391726	0.105242	0.559047	11278.688477
8399.392709	0.097976	0.559047	11374.999023
8399.393602	0.097987	0.559047	11462.501953
8399.394591	0.098115	0.559047	11559.538086
8399.395652	0.097991	0.559047	11663.505859
8399.396541	0.097903	0.559047	11750.541016
8399.397407	0.097987	0.559047	11835.397461
8399.398499	0.098057	0.559047	11942.475586
8399.399466	0.097899	0.559047	12037.144531
8399.400327	0.098002	0.559047	12121.524414
8400.442361	1.130760	0.660766	551.811096
8400.443245	1.567972	0.660766	1937.898682
8400.444186	1.555287	0.660766	3401.423584
8400.445238	1.508584	0.660766	4988.454102
8400.446167	1.466799	0.660766	6351.110840
8400.447032	1.429713	0.660766	7587.812500
8400.448090	1.387467	0.660766	9055.752930
8400.449113	1.348242	0.660766	10435.004883
8400.449996	0.881550	0.660766	11213.414062
8400.450955	0.116235	0.660766	11324.883789
8400.452004	0.097899	0.660766	11427.580078
8400.452913	0.098009	0.660766	11516.669922
8400.453784	0.098020	0.660766	11602.044922
8400.454843	0.097943	0.660766	11705.766602
8400.455844	0.097892	0.660766	11803.755859
8400.456738	0.097994	0.660766	11891.363281
8400.457707	0.098060	0.660766	11986.383789
8400.458763	0.098009	0.660766	12089.880859
8400.459674	0.097921	0.660766	12179.086914
8401.430461	1.065326	0.551148	453.828857
8401.431473	1.565442	0.551148	2038.056030
8401.432480	1.549816	0.551148	3598.720215
8401.433360	1.510144	0.551148	4927.646973
8401.434229	1.469271	0.551148	6204.443359
8401.435328	1.424883	0.551148	7770.389648
8401.436241	1.387515	0.551148	9037.190430
8401.437121	1.353702	0.551148	10228.448242
8401.438112	0.910609	0.551148	11130.861328
8401.439108	0.108772	0.551148	11239.198242
8401.440000	0.097943	0.551148	11326.563477
8401.440861	0.098130	0.551148	11411.053711
8401.441943	0.098031	0.551148	11517.123047
8401.442855	0.098020	0.551148	11606.517578
8401.443734	0.097972	0.551148	11692.635742
8401.444736	0.098108	0.551148	11790.939453
8401.445744	0.098005	0.551148	11889.728516
8401.446623	0.098071	0.551148	11975.933594
8401.447480	0.098013	0.551148	12059.930664
8402.511284	1.080450	0.605740	452.708710
8402.512351	1.572360	0.605740	2130.416260
8402.513248	1.552028	0.605740	3522.584961
8402.514125	1.513143	0.605740	4849.611816
8402.515127	1.468645	0.605740	6321.194336
8402.516061	1.428453	0.605740	7655.369629
8402.516998	1.390913	0.605740	8958.655273
8402.517863	1.356325	0.605740	10131.875977
8402.518907	0.978406	0.605740	11153.332031
8402.519786	0.129884	0.605740	11267.500000
8402.520649	0.097914	0.605740	11352.000000
8402.521605	0.098068	0.605740	11445.752930
8402.522560	0.097910	0.605740	11539.256836
8402.523468	0.097994	0.605740	11628.235352
8402.524351	0.097994	0.605740	11714.764648
8402.525375	0.097943	0.605740	11815.058594
8402.526270	0.097928	0.605740	11902.704102
8402.527139	0.098053	0.605740	11987.912109
8402.528026	0.097998	0.605740	12074.835937
8403.477557	1.185084	0.549967	648.241089
8403.478615	1.572693	0.549967	2312.150146
8403.479510	1.547117	0.549967	3696.819580
8403.480396	1.505867	0.549967	5031.017578
8403.481490	1.458757	0.549967	6626.898437
8403.482444	1.418972	0.549967	7980.597656
8403.483311	1.383801	0.549967	9180.353516
8403.484356	1.344049	0.549967	10584.884766
8403.485393	0.541692	0.549967	11146.619141
8403.486273	0.100334	0.549967	11234.913086
8403.487215	0.098035	0.549967	11327.261719
8403.488265	0.097976	0.549967	11430.136719
8403.489205	0.097936	0.549967	11522.196289
8403.490062	0.097976	0.549967	11606.162109
8403.491118	0.098093	0.549967	11709.749023
8403.492129	0.097954	0.549967	11808.780273
8403.493000	0.097965	0.549967	11894.107422
8403.493950	0.098068	0.549967	11987.271484
8403.494988	0.098020	0.549967	12089.016602
8404.565480	1.121005	0.554564	515.662109
8404.566353	1.566577	0.554564	1883.284058
8404.567355	1.554448	0.554564	3440.841309
8404.568404	1.507965	0.554564	5022.696777
8404.569290	1.467085	0.554564	6322.534180
8404.570158	1.428768	0.554564	7562.705078
8404.571262	1.385632	0.554564	9092.443359
8404.572243	1.348293	0.554564	10415.119141
8404.573116	0.904274	0.554564	11204.549805
8404.574165	0.107509	0.554564	11317.326172
8404.575205	0.098068	0.554564	11419.316406
8404.576094	0.098104	0.554564	11506.531250
8404.577002	0.097903	0.554564	11595.426758
8404.578060	0.097983	0.554564	11699.092773
8404.579023	0.097998	0.554564	11793.464844
8404.579891	0.098038	0.554564	11878.562500
8404.580927	0.098086	0.554564	11980.179687
8404.581950	0.098090	0.554564	12080.525391
8404.582844	0.098013	0.554564	12168.148437
8405.540357	1.105807	0.591217	554.009216
8405.541431	1.571851	0.591217	2242.176758
8405.542373	1.546370	0.591217	3698.856934
8405.543240	1.506603	0.591217	5005.081543
8405.544319	1.459347	0.591217	6579.716797
8405.545319	1.417566	0.591217	7997.282715
8405.546214	1.381362	0.591217	9233.601562
8405.547187	1.344888	0.591217	10542.177734
8405.548235	0.557593	0.591217	11126.535156
8405.549141	0.099968	0.591217	11217.106445
8405.549999	0.098046	0.591217	11301.229492
8405.551093	0.098188	0.591217	11408.647461
8405.552076	0.098097	0.591217	11505.077148
8405.552953	0.098079	0.591217	11591.091797
8405.553955	0.098145	0.591217	11689.432617
8405.554993	0.098042	0.591217	11791.200195
8405.555871	0.097983	0.591217	11877.229492
8405.556734	0.098130	0.591217	11961.916016
8405.557807	0.098068	0.591217	12067.142578
8406.610901	1.092814	0.606585	493.951752
8406.611946	1.571561	0.606585	2136.233398
8406.612826	1.551815	0.606585	3501.830566
8406.613705	1.513070	0.606585	4831.819336
8406.614701	1.468524	0.606585	6294.469727
8406.615648	1.428061	0.606585	7646.843750
8406.616566	1.390975	0.606585	8923.758789
8406.617438	1.356617	0.606585	10106.729492
8406.618480	0.991362	0.606585	11139.728516
8406.619366	0.130422	0.606585	11255.283203
8406.620241	0.097943	0.606585	11340.983398
8406.621205	0.098049	0.606585	11435.502930
8406.622162	0.098020	0.606585	11529.307617
8406.623079	0.097969	0.606585	11619.144531
8406.623941	0.098031	0.606585	11703.647461
8406.624959	0.097987	0.606585	11803.398437
8406.625857	0.097943	0.606585	11891.351562
8406.626726	0.097998	0.606585	11976.511719
8406.627613	0.098119	0.606585	12063.542969
8407.603781	1.187289	0.588555	669.630859
8407.604840	1.572707	0.588555	2335.127930
8407.605723	1.546912	0.588555	3701.050781
8407.606592	1.505914	0.588555	5009.690430
8407.607696	1.458889	0.588555	6620.304199
8407.608652	1.418987	0.588555	7976.855469
8407.609518	1.383904	0.588555	9175.316406
8407.610558	1.344401	0.588555	10573.493164
8407.611600	0.561222	0.588555	11158.286133
8407.612474	0.100433	0.588555	11246.064453
8407.613377	0.097947	0.588555	11334.510742
8407.614448	0.098060	0.588555	11439.533203
8407.615399	0.098075	0.588555	11532.802734
8407.616269	0.098053	0.588555	11618.108398
8407.617299	0.098152	0.588555	11719.205078
8407.618319	0.097917	0.588555	11819.081055
8407.619209	0.098101	0.588555	11906.390625
8407.620147	0.098071	0.588555	11998.381836
8407.621202	0.098053	0.588555	12101.828125
8408.660508	1.150536	0.598436	584.472229
8408.661556	1.572349	0.598436	2232.293457
8408.662432	1.549578	0.598436	3589.723389
8408.663391	1.506768	0.598436	5034.713379
8408.664445	1.459753	0.598436	6573.293457
8408.665371	1.420950	0.598436	7889.092773
8408.666244	1.385266	0.598436	9098.429687
8408.667282	1.345569	0.598436	10495.129883
8408.668297	0.629597	0.598436	11134.170898
8408.669193	0.101759	0.598436	11225.346680
8408.670159	0.098137	0.598436	11320.147461
8408.671214	0.098115	0.598436	11423.659180
8408.672136	0.097972	0.598436	11513.990234
8408.672996	0.098009	0.598436	11598.278320
8408.674078	0.098167	0.598436	11704.494141
8408.675064	0.098046	0.598436	11801.166992
8408.675954	0.098035	0.598436	11888.417969
8408.676948	0.098038	0.598436	11985.868164
8408.677985	0.098035	0.598436	12087.530273
8409.657365	1.144633	0.646982	579.184082
8409.658373	1.572499	0.646982	2164.262695
8409.659250	1.551354	0.646982	3524.799805
8409.660263	1.506669	0.646982	5051.055176
8409.661315	1.460284	0.646982	6587.274414
8409.662201	1.422122	0.646982	7847.273926
8409.663076	1.384980	0.646982	9059.131836
8409.664185	1.344569	0.646982	10550.258789
8409.665147	0.652852	0.646982	11178.301758
8409.666011	0.103096	0.646982	11267.375977
8409.667022	0.098145	0.646982	11366.599609
8409.668057	0.098024	0.646982	11468.053711
8409.668947	0.098027	0.646982	11555.297852
8409.669864	0.097987	0.646982	11645.152344
8409.670931	0.098086	0.646982	11749.809570
8409.671881	0.098027	0.646982	11842.935547
8409.672748	0.098185	0.646982	11928.061523
8409.673781	0.098156	0.646982	12029.456055
8409.674801	0.098020	0.646982	12129.436523
8410.721730	1.066619	0.636371	459.712585
8410.722609	1.564142	0.636371	1834.593262
8410.723536	1.557576	0.636371	3278.465820
8410.724595	1.511821	0.636371	4879.484375
8410.725477	1.471326	0.636371	6177.193848
8410.726340	1.434664	0.636371	7415.309082
8410.727391	1.392334	0.636371	8878.652344
8410.728349	1.355127	0.636371	10176.864258
8410.729224	1.107993	0.636371	11146.358398
8410.730121	0.162664	0.636371	11292.267578
8410.731207	0.097969	0.636371	11398.662109
8410.732104	0.098079	0.636371	11486.638672
8410.732968	0.097976	0.636371	11571.290039
8410.733992	0.098049	0.636371	11671.692383
8410.734963	0.097939	0.636371	11766.791992
8410.735836	0.098024	0.636371	11852.366211
8410.736701	0.097991	0.636371	11937.127930
8410.737810	0.098075	0.636371	12045.892578
8410.738714	0.097961	0.636371	12134.449219
8411.704786	1.096436	0.551889	490.106689
8411.705661	1.565116	0.551889	1859.583252
8411.706675	1.554243	0.551889	3435.585693
8411.707724	1.507837	0.551889	5017.306641
8411.708612	1.467008	0.551889	6320.009766
8411.709485	1.428527	0.551889	7567.113281
8411.710584	1.385446	0.551889	9089.717773
8411.711563	1.348315	0.551889	10409.718750
8411.712436	0.912400	0.551889	11206.244141
8411.713454	0.110039	0.551889	11318.263672
8411.714499	0.098002	0.551889	11420.675781
8411.715383	0.098016	0.551889	11507.322266
8411.716302	0.098068	0.551889	11597.446289
8411.717357	0.098185	0.551889	11701.031250
8411.718302	0.098049	0.551889	11793.687500
8411.719167	0.097980	0.551889	11878.440430
8411.720212	0.098068	0.551889	11980.920898
8411.721241	0.098038	0.551889	12081.802734
8411.722137	0.098046	0.551889	12169.651367
8412.784599	1.099929	0.589107	494.968140
8412.785483	1.566270	0.589107	1879.550415
8412.786453	1.555151	0.589107	3388.047363
8412.787515	1.508232	0.589107	4989.790039
8412.788436	1.466459	0.589107	6340.398437
8412.789306	1.428593	0.589107	7583.273926
8412.790408	1.385262	0.589107	9109.833008
8412.791382	1.347598	0.589107	10422.392578
8412.792270	0.878851	0.589107	11202.812500
8412.793283	0.111053	0.589107	11315.309570
8412.794321	0.097998	0.589107	11417.031250
8412.795201	0.098027	0.589107	11503.294922
8412.796067	0.097998	0.589107	11588.161133
8412.797168	0.098148	0.589107	11696.222656
8412.798127	0.098057	0.589107	11790.258789
8412.798991	0.098031	0.589107	11874.958008
8412.800029	0.098159	0.589107	11976.847656
8412.801062	0.098049	0.589107	12078.132812
8412.801945	0.098093	0.589107	12164.749023
8413.754821	1.071006	0.570306	460.532501
8413.755699	1.564343	0.570306	1834.025879
8413.756656	1.556825	0.570306	3323.907471
8413.757702	1.510796	0.570306	4904.200195
8413.758594	1.470201	0.570306	6215.620117
8413.759460	1.432991	0.570306	7456.589844
8413.760528	1.390265	0.570306	8941.392578
8413.761463	1.353886	0.570306	10207.275391
8413.762338	1.082432	0.570306	11154.403320
8413.763295	0.153607	0.570306	11301.405273
8413.764346	0.097980	0.570306	11404.381836
8413.765221	0.097965	0.570306	11490.101562
8413.766090	0.098079	0.570306	11575.332031
8413.767097	0.098038	0.570306	11674.056641
8413.768052	0.098005	0.570306	11767.651367
8413.768925	0.097991	0.570306	11853.197266
8413.769819	0.098097	0.570306	11940.895508
8413.770898	0.098068	0.570306	12046.710937
8413.771793	0.098020	0.570306	12134.438477
8414.837765	1.155066	0.533157	563.672180
8414.838660	1.568555	0.533157	1967.528564
8414.839532	1.557140	0.533157	3325.354492
8414.840546	1.513250	0.533157	4859.789551
8414.841466	1.470348	0.533157	6212.509766
8414.842375	1.431976	0.533157	7514.176270
8414.843255	1.395791	0.533157	8742.472656
8414.844275	1.356573	0.533157	10126.177734
8414.845176	1.118115	0.533157	11133.599609
8414.846062	0.163737	0.533157	11278.669922
8414.847015	0.098053	0.533157	11372.114258
8414.847990	0.098071	0.533157	11467.733398
8414.848911	0.097943	0.533157	11557.939453
8414.849776	0.098046	0.533157	11642.749023
8414.850813	0.098060	0.533157	11744.437500
8414.851704	0.097972	0.533157	11831.730469
8414.852578	0.098075	0.533157	11917.448242
8414.853465	0.098141	0.533157	12004.499023
8414.854475	0.098079	0.533157	12103.558594
8415.813163	1.168132	0.591685	612.101379
8415.814183	1.572279	0.591685	2215.826172
8415.815077	1.549076	0.591685	3600.700195
8415.816035	1.506885	0.591685	5044.295898
8415.817080	1.459596	0.591685	6569.573730
8415.818006	1.421136	0.591685	7885.545898
8415.818871	1.385321	0.591685	9083.848633
8415.819929	1.345635	0.591685	10507.530273
8415.820946	0.624708	0.591685	11142.858398
8415.821824	0.101986	0.591685	11232.402344
8415.822812	0.098086	0.591685	11329.311523
8415.823877	0.097954	0.591685	11433.632812
8415.824772	0.098130	0.591685	11521.458984
8415.825642	0.098038	0.591685	11606.751953
8415.826714	0.098013	0.591685	11711.821289
8415.827706	0.097863	0.591685	11808.901367
8415.828599	0.098016	0.591685	11896.429687
8415.829583	0.098053	0.591685	11992.914062
8415.830635	0.098046	0.591685	12096.057617
8416.888264	1.076554	0.573545	458.611969
8416.889205	1.563395	0.573545	1929.766357
8416.890267	1.550032	0.573545	3575.899902
8416.891205	1.507874	0.573545	4990.285156
8416.892069	1.468458	0.573545	6259.033203
8416.893142	1.424246	0.573545	7787.249023
8416.894161	1.382838	0.573545	9196.361328
8416.895041	1.348821	0.573545	10383.323242
8416.896014	0.799351	0.573545	11161.091797
8416.897058	0.103312	0.573545	11268.949219
8416.897966	0.097991	0.573545	11357.924805
8416.898824	0.098027	0.573545	11442.032227
8416.899870	0.098060	0.573545	11544.603516
8416.900873	0.097921	0.573545	11642.818359
8416.901758	0.098035	0.573545	11729.579102
8416.902738	0.098053	0.573545	11825.670898
8416.903792	0.098145	0.573545	11929.115234
8416.904695	0.098082	0.573545	12017.683594
8416.905557	0.098071	0.573545	12102.220703
8417.874380	1.071676	0.529177	468.322418
8417.875247	1.563801	0.529177	1824.138062
8417.876114	1.559956	0.529177	3176.620117
8417.877160	1.515245	0.529177	4761.566895
8417.878066	1.473593	0.529177	6096.641602
8417.878933	1.436814	0.529177	7342.359375
8417.879983	1.393846	0.529177	8805.898437
8417.880958	1.356207	0.529177	10128.200195
8417.881876	1.100834	0.529177	11138.765625
8417.882751	0.159159	0.529177	11278.029297
8417.883818	0.097958	0.529177	11382.549805
8417.884710	0.098038	0.529177	11470.000000
8417.885584	0.098042	0.529177	11555.688477
8417.886464	0.098137	0.529177	11642.048828
8417.887498	0.098005	0.529177	11743.386719
8417.888380	0.098079	0.529177	11829.891602
8417.889242	0.098053	0.529177	11914.413086
8417.890328	0.098101	0.529177	12020.950195
8417.891243	0.098071	0.529177	12110.685547
8418.936346	1.144567	0.571261	578.006165
8418.937346	1.572206	0.571261	2150.211914
8418.938237	1.550878	0.571261	3532.043945
8418.939226	1.506874	0.571261	5022.342285
8418.940290	1.459673	0.571261	6575.434570
8418.941201	1.421239	0.571261	7870.183594
8418.942065	1.384655	0.571261	9066.525391
8418.943175	1.343789	0.571261	10558.130859
8418.944152	0.626741	0.571261	11170.457031
8418.945024	0.102129	0.571261	11259.513672
8418.946097	0.098101	0.571261	11364.775391
8418.947128	0.098035	0.571261	11465.849609
8418.948020	0.098053	0.571261	11553.312500
8418.948935	0.098170	0.571261	11643.138672
8418.949995	0.098134	0.571261	11747.160156
8418.950950	0.098101	0.571261	11840.846680
8418.951815	0.097910	0.571261	11925.539062
8418.952869	0.098159	0.571261	12028.999023
8418.953879	0.097961	0.571261	12127.940430
8419.931579	1.063121	0.508403	449.700317
8419.932583	1.566965	0.508403	2022.933472
8419.933641	1.548051	0.508403	3660.770996
8419.934535	1.507090	0.508403	5008.109375
8419.935436	1.465800	0.508403	6328.794922
8419.936544	1.420360	0.508403	7902.554199
8419.937502	1.381981	0.508403	9226.492187
8419.938370	1.348319	0.508403	10396.833008
8419.939431	0.679753	0.508403	11118.051758
8419.940447	0.100305	0.508403	11219.961914
8419.941340	0.098049	0.508403	11307.519531
8419.942287	0.098086	0.508403	11400.407227
8419.943331	0.098075	0.508403	11502.797852
8419.944259	0.098038	0.508403	11593.777344
8419.945119	0.098093	0.508403	11678.137695
8419.946162	0.098192	0.508403	11780.551758
8419.947173	0.098090	0.508403	11879.720703
8419.948047	0.098093	0.508403	11965.454102
8419.949000	0.098090	0.508403	12058.933594
8420.988988	1.152360	0.536501	640.711914
8420.990053	1.572026	0.536501	2314.919922
8420.990957	1.545839	0.536501	3712.358154
8420.991824	1.505050	0.536501	5017.236328
8420.992900	1.458505	0.536501	6586.587402
8420.993892	1.416760	0.536501	7992.013672
8420.994794	1.381176	0.536501	9237.833984
8420.995769	1.343954	0.536501	10548.189453
8420.996832	0.538535	0.536501	11120.652344
8420.997720	0.099789	0.536501	11209.264648
8420.998594	0.098016	0.536501	11294.930664
8420.999700	0.098035	0.536501	11403.357422
8421.000653	0.098064	0.536501	11496.812500
8421.001523	0.098020	0.536501	11582.089844
8421.002551	0.098064	0.536501	11682.899414
8421.003585	0.098112	0.536501	11784.346680
8421.004478	0.098038	0.536501	11871.894531
8421.005391	0.098064	0.536501	11961.426758
8421.006455	0.098126	0.536501	12065.833008
8421.987272	1.074609	0.547123	468.529633
8421.988142	1.564160	0.547123	1829.348999
8421.989178	1.553005	0.547123	3438.262695
8421.990204	1.507943	0.547123	4985.412109
8421.991106	1.467242	0.547123	6308.864746
8421.992065	1.427424	0.547123	7677.764648
8421.993115	1.384501	0.547123	9131.490234
8421.994056	1.348411	0.547123	10400.344727
8421.994929	0.897748	0.547123	11184.078125
8421.996000	0.106285	0.547123	11297.910156
8421.996990	0.098038	0.547123	11394.967773
8421.997879	0.098148	0.547123	11482.221680
8421.998864	0.098134	0.547123	11578.882812
8421.999902	0.098024	0.547123	11680.631836
8422.000810	0.097991	0.547123	11769.607422
8422.001667	0.098038	0.547123	11853.625977
8422.002748	0.098086	0.547123	11959.657227
8422.003748	0.098042	0.547123	12057.699219
8422.004619	0.098071	0.547123	12143.119141
8423.042583	1.153806	0.549238	581.518250
8423.043592	1.572506	0.549238	2168.176758
8423.044482	1.550683	0.549238	3548.285156
8423.045468	1.506779	0.549238	5033.968750
8423.046530	1.459622	0.549238	6584.086914
8423.047437	1.421305	0.549238	7873.210449
8423.048307	1.384676	0.549238	9077.878906
8423.049422	1.343408	0.549238	10575.779297
8423.050399	0.611928	0.549238	11173.632812
8423.051266	0.101953	0.549238	11262.026367
8423.052346	0.098148	0.549238	11368.026367
8423.053380	0.098057	0.549238	11469.416992
8423.054272	0.098053	0.549238	11556.879883
8423.055190	0.098188	0.549238	11647.016602
8423.056247	0.098086	0.549238	11750.693359
8423.057186	0.098145	0.549238	11842.851562
8423.058048	0.098075	0.549238	11927.392578
8423.059093	0.098199	0.549238	12030.010742
8423.060105	0.098049	0.549238	12129.236328
8424.040426	1.094832	0.576429	503.622528
8424.041311	1.566434	0.576429	1889.916992
8424.042232	1.555375	0.576429	3322.416992
8424.043313	1.509251	0.576429	4953.916992
8424.044192	1.468726	0.576429	6244.926758
8424.045070	1.431683	0.576429	7501.944824
8424.046000	1.393594	0.576429	8797.987305
8424.046990	1.355533	0.576429	10139.965820
8424.047867	1.124648	0.576429	11126.282227
8424.048757	0.168157	0.576429	11275.941406
8424.049857	0.097892	0.576429	11383.622070
8424.050752	0.098079	0.576429	11471.402344
8424.051614	0.098031	0.576429	11555.905273
8424.052644	0.098185	0.576429	11657.035156
8424.053610	0.098031	0.576429	11751.733398
8424.054531	0.097983	0.576429	11841.976562
8424.055396	0.098115	0.576429	11926.846680
8424.056486	0.098005	0.576429	12033.672852
8424.057374	0.098024	0.576429	12120.717773
8425.096212	1.142278	0.554185	583.703979
8425.097119	1.570375	0.554185	2008.033813
8425.097987	1.554598	0.554185	3357.425293
8425.099049	1.508170	0.554185	4959.102051
8425.100058	1.462903	0.554185	6435.170898
8425.100958	1.425546	0.554185	7718.162109
8425.101930	1.386376	0.554185	9065.719727
8425.102993	1.345741	0.554185	10496.242187
8425.103908	0.763499	0.554185	11194.843750
8425.104771	0.107886	0.554185	11287.949219
8425.105879	0.098134	0.554185	11396.681641
8425.106832	0.097969	0.554185	11490.045898
8425.107714	0.098027	0.554185	11576.505859
8425.108713	0.098108	0.554185	11674.515625
8425.109759	0.098075	0.554185	11777.101562
8425.110642	0.097998	0.554185	11863.633789
8425.111519	0.098148	0.554185	11949.709961
8425.112600	0.098082	0.554185	12055.737305
8425.113553	0.097939	0.554185	12149.073242
8426.094529	1.074390	0.563305	457.690002
8426.095574	1.569214	0.563305	2097.518555
8426.096582	1.547395	0.563305	3657.292725
8426.097477	1.507280	0.563305	5006.308594
8426.098455	1.463826	0.563305	6437.930176
8426.099520	1.419166	0.563305	7949.342285
8426.100434	1.382183	0.563305	9212.657227
8426.101300	1.347784	0.563305	10379.838867
8426.102412	0.640089	0.563305	11091.618164
8426.103401	0.099672	0.563305	11190.193359
8426.104294	0.098009	0.563305	11277.715820
8426.105284	0.098057	0.563305	11374.791992
8426.106324	0.098057	0.563305	11476.770508
8426.107213	0.098090	0.563305	11563.971680
8426.108089	0.098020	0.563305	11649.836914
8426.109171	0.098152	0.563305	11756.037109
8426.110131	0.098126	0.563305	11850.238281
8426.110990	0.098119	0.563305	11934.522461
8426.112024	0.098123	0.563305	12035.981445
8427.151946	1.190197	0.504097	666.510071
8427.152985	1.572587	0.504097	2300.427490
8427.153871	1.547351	0.504097	3671.380615
8427.154806	1.505072	0.504097	5078.623047
8427.155874	1.457908	0.504097	6635.668457
8427.156804	1.418708	0.504097	7955.067383
8427.157678	1.383215	0.504097	9163.998047
8427.158712	1.343837	0.504097	10553.525391
8427.159741	0.557446	0.504097	11127.137695
8427.160630	0.100503	0.504097	11216.484375
8427.161576	0.098123	0.504097	11309.308594
8427.162634	0.098086	0.504097	11413.083984
8427.163569	0.098035	0.504097	11504.746094
8427.164431	0.098060	0.504097	11589.274414
8427.165482	0.098214	0.504097	11692.497070
8427.166475	0.098104	0.504097	11789.915039
8427.167364	0.098013	0.504097	11877.047852
8427.168325	0.098005	0.504097	11971.231445
8427.169356	0.098053	0.504097	12072.324219
8428.147132	1.068303	0.551168	457.233795
8428.148084	1.562666	0.551168	1944.891846
8428.149164	1.548201	0.551168	3616.948486
8428.150095	1.506599	0.551168	5019.592285
8428.150971	1.466506	0.551168	6304.251953
8428.152043	1.422169	0.551168	7828.817383
8428.153043	1.381893	0.551168	9210.710937
8428.153936	1.347788	0.551168	10414.285156
8428.154911	0.763920	0.551168	11159.106445
8428.155970	0.101477	0.551168	11266.570312
8428.156886	0.097998	0.551168	11356.336914
8428.157747	0.097939	0.551168	11440.663086
8428.158826	0.098086	0.551168	11546.498047
8428.159797	0.098009	0.551168	11641.665039
8428.160685	0.098049	0.551168	11728.732422
8428.161672	0.098156	0.551168	11825.612305
8428.162716	0.098126	0.551168	11928.055664
8428.163611	0.097954	0.551168	12015.724609
8428.164470	0.098090	0.551168	12099.983398
8429.204416	1.091719	0.481820	467.255646
8429.205537	1.570620	0.481820	2227.920654
8429.206499	1.546523	0.481820	3715.676270
8429.207364	1.507170	0.481820	5019.378906
8429.208404	1.461563	0.481820	6539.403809
8429.209450	1.418053	0.481820	8022.687500
8429.210325	1.381992	0.481820	9231.930664
8429.211270	1.345778	0.481820	10503.690430
8429.212345	0.573062	0.481820	11119.731445
8429.213274	0.099921	0.481820	11212.557617
8429.214142	0.098060	0.481820	11297.673828
8429.215180	0.098049	0.481820	11399.449219
8429.216205	0.098031	0.481820	11499.930664
8429.217096	0.098082	0.481820	11587.322266
8429.218045	0.098038	0.481820	11680.360352
8429.219094	0.097976	0.481820	11783.137695
8429.220023	0.098031	0.481820	11874.208984
8429.220888	0.098090	0.481820	11959.056641
8429.221934	0.098232	0.481820	12061.807617
8430.200274	1.089602	0.567205	477.245728
8430.201150	1.564757	0.567205	1847.972900
8430.202106	1.556316	0.567205	3335.811035
8430.203082	1.513436	0.567205	4812.924805
8430.204001	1.471886	0.567205	6165.587891
8430.204867	1.434613	0.567205	7407.962891
8430.205882	1.393385	0.567205	8822.249023
8430.206789	1.357862	0.567205	10053.830078
8430.207665	1.194276	0.567205	11100.015625
8430.208551	0.200328	0.567205	11277.506836
8430.209597	0.097855	0.567205	11379.863281
8430.210488	0.097899	0.567205	11467.091797
8430.211363	0.097994	0.567205	11552.836914
8430.212358	0.098079	0.567205	11650.424805
8430.213290	0.097939	0.567205	11741.704102
8430.214216	0.097998	0.567205	11832.450195
8430.215077	0.098038	0.567205	11916.861328
8430.216112	0.098020	0.567205	12018.312500
8430.216989	0.098009	0.567205	12104.266602
8431.257527	1.085878	0.472055	457.154480
8431.258649	1.571202	0.472055	2220.043457
8431.259621	1.546234	0.472055	3722.982910
8431.260490	1.506940	0.472055	5032.513672
8431.261531	1.460456	0.472055	6552.848633
8431.262574	1.417262	0.472055	8031.052734
8431.263467	1.381157	0.472055	9264.425781
8431.264400	1.345704	0.472055	10519.967773
8431.265468	0.574834	0.472055	11133.890625
8431.266411	0.099569	0.472055	11227.784180
8431.267273	0.098035	0.472055	11312.290039
8431.268339	0.098159	0.472055	11416.927734
8431.269344	0.098002	0.472055	11515.419922
8431.270224	0.098005	0.472055	11601.665039
8431.271190	0.098086	0.472055	11696.416016
8431.272231	0.098119	0.472055	11798.557617
8431.273146	0.098093	0.472055	11888.312500
8431.274003	0.098005	0.472055	11972.302734
8431.275064	0.098221	0.472055	12076.515625
8432.254984	1.138532	0.565944	570.404297
8432.255983	1.571913	0.565944	2140.745117
8432.256881	1.550819	0.565944	3533.380859
8432.257866	1.507119	0.565944	5017.893555
8432.258924	1.460054	0.565944	6562.630371
8432.259837	1.421459	0.565944	7860.422363
8432.260703	1.385332	0.565944	9060.120117
8432.261796	1.344807	0.565944	10529.994141
8432.262795	0.625920	0.565944	11155.289062
8432.263673	0.102374	0.565944	11245.173828
8432.264677	0.098082	0.565944	11343.648437
8432.265716	0.098049	0.565944	11445.521484
8432.266601	0.098071	0.565944	11532.314453
8432.267484	0.098112	0.565944	11618.947266
8432.268579	0.098071	0.565944	11726.334961
8432.269530	0.097958	0.565944	11819.493164
8432.270392	0.098097	0.565944	11904.052734
8432.271408	0.098086	0.565944	12003.708008
8432.272446	0.098016	0.565944	12105.449219
8433.310649	1.086347	0.464353	460.610931
8433.311752	1.570803	0.464353	2193.207031
8433.312714	1.547578	0.464353	3681.977051
8433.313587	1.508090	0.464353	4998.539062
8433.314677	1.459687	0.464353	6589.598633
8433.315711	1.416844	0.464353	8054.615723
8433.316598	1.380886	0.464353	9279.461914
8433.317543	1.344862	0.464353	10550.356445
8433.318620	0.548818	0.464353	11141.433594
8433.319550	0.099525	0.464353	11233.992187
8433.320409	0.098024	0.464353	11318.194336
8433.321441	0.097991	0.464353	11419.320312
8433.322454	0.098020	0.464353	11518.614258
8433.323345	0.098053	0.464353	11605.979492
8433.324311	0.098134	0.464353	11700.776367
8433.325353	0.098137	0.464353	11803.035156
8433.326282	0.097987	0.464353	11894.065430
8433.327146	0.097932	0.464353	11978.678711
8433.328217	0.098130	0.464353	12083.775391
8434.310581	1.076283	0.553834	452.038788
8434.311669	1.570063	0.553834	2160.267822
8434.312639	1.547659	0.553834	3661.496582
8434.313513	1.508093	0.553834	4979.570312
8434.314580	1.460848	0.553834	6538.295898
8434.315623	1.417320	0.553834	8016.561035
8434.316519	1.381080	0.553834	9254.008789
8434.317456	1.345338	0.553834	10514.590820
8434.318523	0.580173	0.553834	11133.635742
8434.319462	0.099781	0.553834	11227.330078
8434.320325	0.097950	0.553834	11311.861328
8434.321377	0.097998	0.553834	11414.955078
8434.322390	0.097928	0.553834	11514.156250
8434.323271	0.098042	0.553834	11600.531250
8434.324234	0.097976	0.553834	11694.881836
8434.325286	0.098115	0.553834	11798.098633
8434.326191	0.097965	0.553834	11886.756836
8434.327051	0.097958	0.553834	11971.000977
8434.328101	0.098082	0.553834	12073.987305
8435.364325	1.092982	0.450488	510.422668
8435.365404	1.571334	0.450488	2205.892090
8435.366284	1.550046	0.450488	3569.933105
8435.367147	1.511279	0.450488	4874.166992
8435.368197	1.464760	0.450488	6412.164551
8435.369156	1.423942	0.450488	7777.724609
8435.370037	1.388163	0.450488	9000.696289
8435.370907	1.352959	0.450488	10177.770508
8435.372034	0.808755	0.450488	11089.237305
8435.372934	0.108043	0.450488	11186.476562
8435.373797	0.097892	0.450488	11270.957031
8435.374850	0.097947	0.450488	11374.094727
8435.375822	0.097950	0.450488	11469.302734
8435.376695	0.097976	0.450488	11554.835937
8435.377554	0.098009	0.450488	11639.025391
8435.378646	0.097932	0.450488	11745.966797
8435.379539	0.097998	0.450488	11833.479492
8435.380410	0.097969	0.450488	11918.810547
8435.381406	0.098156	0.450488	12016.573242
8436.362258	1.168096	0.534209	595.728821
8436.363153	1.569177	0.534209	2000.142578
8436.364076	1.553804	0.534209	3434.303223
8436.364944	1.514377	0.534209	4748.782715
8436.365944	1.470575	0.534209	6219.357422
8436.366873	1.431086	0.534209	7548.836914
8436.367739	1.395414	0.534209	8757.265625
8436.368771	1.356068	0.534209	10156.727539
8436.369652	1.118254	0.534209	11141.909180
8436.370569	0.157343	0.534209	11286.192383
8436.371450	0.097921	0.534209	11372.460937
8436.372390	0.097936	0.534209	11464.520508
8436.373336	0.098024	0.534209	11557.250977
8436.374230	0.098071	0.534209	11644.926758
8436.375211	0.098137	0.534209	11741.199219
8436.376120	0.098038	0.534209	11830.316406
8436.377038	0.098108	0.534209	11920.379883
8436.377902	0.098090	0.534209	12005.128906
8436.378940	0.098016	0.534209	12106.870117
8437.418026	1.162767	0.453030	602.313477
8437.418985	1.572048	0.453030	2109.907715
8437.419848	1.552994	0.453030	3450.141846
8437.420913	1.505753	0.453030	5053.769043
8437.421968	1.459171	0.453030	6593.194336
8437.422856	1.421426	0.453030	7855.420410
8437.423806	1.383534	0.453030	9169.777344
8437.424861	1.342833	0.453030	10586.466797
8437.425802	0.643326	0.453030	11191.836914
8437.426659	0.103000	0.453030	11280.108398
8437.427714	0.098082	0.453030	11383.584961
8437.428734	0.097906	0.453030	11483.449219
8437.429608	0.097965	0.453030	11569.070312
8437.430574	0.097994	0.453030	11663.732422
8437.431626	0.098024	0.453030	11766.853516
8437.432548	0.098053	0.453030	11857.258789
8437.433409	0.097925	0.453030	11941.572266
8437.434469	0.098079	0.453030	12045.535156
8437.435464	0.097950	0.453030	12142.996094
8438.413848	1.129849	0.488882	587.521301
8438.414916	1.571528	0.488882	2265.913574
8438.415836	1.546007	0.488882	3688.239990
8438.416706	1.505746	0.488882	4998.238770
8438.417788	1.458783	0.488882	6576.641602
8438.418774	1.417445	0.488882	7974.242187
8438.419671	1.381714	0.488882	9213.639648
8438.420656	1.344470	0.488882	10537.943359
8438.421703	0.564148	0.488882	11128.606445
8438.422608	0.099928	0.488882	11219.041016
8438.423469	0.098016	0.488882	11303.432617
8438.424567	0.098016	0.488882	11411.054687
8438.425530	0.097936	0.488882	11505.367187
8438.426390	0.097877	0.488882	11589.541992
8438.427458	0.098031	0.488882	11694.239258
8438.428486	0.098079	0.488882	11795.064453
8438.429366	0.098057	0.488882	11881.354492
8438.430256	0.098002	0.488882	11968.576172
8438.431357	0.098027	0.488882	12076.503906
8439.474209	1.151964	0.453832	588.653625
8439.475235	1.572133	0.453832	2201.661621
8439.476111	1.549761	0.453832	3559.251953
8439.477083	1.506244	0.453832	5023.320801
8439.478150	1.459006	0.453832	6580.080566
8439.479067	1.420411	0.453832	7882.597656
8439.479936	1.384164	0.453832	9085.435547
8439.481008	1.344229	0.453832	10526.448242
8439.482008	0.605116	0.453832	11131.564453
8439.482898	0.101331	0.453832	11221.749023
8439.483885	0.098060	0.453832	11318.534180
8439.484943	0.097980	0.453832	11422.196289
8439.485842	0.097943	0.453832	11510.247070
8439.486702	0.097994	0.453832	11594.522461
8439.487801	0.098064	0.453832	11702.294922
8439.488770	0.097844	0.453832	11797.106445
8439.489637	0.097866	0.453832	11881.956055
8439.490725	0.097928	0.453832	11988.501953
8439.491741	0.097932	0.453832	12088.000977
8440.461809	1.125601	0.462710	529.032288
8440.462689	1.566910	0.462710	1907.913330
8440.463550	1.556968	0.462710	3248.462402
8440.464638	1.510474	0.462710	4891.857422
8440.465564	1.468206	0.462710	6251.416016
8440.466443	1.431347	0.462710	7509.569336
8440.467423	1.392107	0.462710	8873.833984
8440.468442	1.351959	0.462710	10251.480469
8440.469345	1.013584	0.462710	11166.747070
8440.470205	0.137446	0.462710	11284.951172
8440.471291	0.097954	0.462710	11391.329102
8440.472227	0.097961	0.462710	11483.021484
8440.473102	0.097965	0.462710	11568.741211
8440.474059	0.097976	0.462710	11662.503906
8440.475070	0.097932	0.462710	11761.513672
8440.475946	0.097994	0.462710	11847.356445
8440.476806	0.097936	0.462710	11931.581055
8440.477851	0.097961	0.462710	12033.951172
8440.478788	0.097888	0.462710	12125.672852
8441.532890	1.083362	0.446935	479.929260
8441.533770	1.565039	0.446935	1857.163574
8441.534690	1.556799	0.446935	3289.418945
8441.535637	1.514685	0.446935	4723.825684
8441.536561	1.473120	0.446935	6084.988770
8441.537438	1.434895	0.446935	7343.391602
8441.538457	1.394275	0.446935	8764.158203
8441.539357	1.359027	0.446935	9987.282227
8441.540284	1.188047	0.446935	11088.601562
8441.541155	0.194539	0.446935	11258.044922
8441.542152	0.097804	0.446935	11355.555664
8441.543070	0.097885	0.446935	11445.414062
8441.543936	0.098042	0.446935	11530.318359
8441.544969	0.097917	0.446935	11631.466797
8441.545846	0.097855	0.446935	11717.286133
8441.546747	0.097932	0.446935	11805.523437
8441.547617	0.097991	0.446935	11890.775391
8441.548590	0.097906	0.446935	11986.038086
8441.549515	0.097976	0.446935	12076.666016
8442.509750	1.086368	0.471198	457.361115
8442.510861	1.570547	0.471198	2202.238770
8442.511839	1.546040	0.471198	3714.266113
8442.512718	1.506273	0.471198	5038.280273
8442.513758	1.460054	0.471198	6556.736328
8442.514793	1.417013	0.471198	8023.344727
8442.515689	1.380798	0.471198	9260.540039
8442.516629	1.345375	0.471198	10525.192383
8442.517700	0.569908	0.471198	11135.564453
8442.518639	0.099500	0.471198	11228.994141
8442.519503	0.097874	0.471198	11313.556641
8442.520551	0.097910	0.471198	11416.166016
8442.521560	0.097874	0.471198	11514.920898
8442.522437	0.097910	0.471198	11600.788086
8442.523410	0.097939	0.471198	11696.083008
8442.524463	0.097932	0.471198	11799.205078
8442.525380	0.097961	0.471198	11889.036133
8442.526237	0.097910	0.471198	11972.945312
8442.527303	0.097976	0.471198	12077.387695
8443.588564	1.085958	0.413355	478.907593
8443.589433	1.564347	0.413355	1838.325073
8443.590493	1.551903	0.413355	3483.342285
8443.591505	1.506789	0.413355	5008.213379
8443.592382	1.467078	0.413355	6294.840332
8443.593343	1.426794	0.413355	7665.989746
8443.594411	1.383992	0.413355	9144.092773
8443.595320	1.348550	0.413355	10369.924805
8443.596204	0.889200	0.413355	11155.978516
8443.597275	0.105897	0.413355	11269.394531
8443.598264	0.097899	0.413355	11366.216797
8443.599156	0.097797	0.413355	11453.451172
8443.600139	0.098005	0.413355	11549.790039
8443.601192	0.097972	0.413355	11652.955078
8443.602089	0.097925	0.413355	11740.793945
8443.602951	0.098024	0.413355	11825.290039
8443.604044	0.098020	0.413355	11932.425781
8443.605011	0.097885	0.413355	12027.080078
8443.605877	0.097972	0.413355	12111.923828
8444.564492	1.131559	0.467717	570.305664
8444.565369	1.568639	0.467717	1946.001953
8444.566260	1.554705	0.467717	3331.243652
8444.567362	1.507075	0.467717	4992.040527
8444.568327	1.464100	0.467717	6404.897461
8444.569201	1.427102	0.467717	7652.184570
8444.570246	1.385017	0.467717	9099.527344
8444.571273	1.345983	0.467717	10481.851562
8444.572164	0.805536	0.467717	11199.583984
8444.573104	0.110442	0.467717	11303.399414
8444.574139	0.098002	0.467717	11404.831055
8444.575068	0.097939	0.467717	11495.816406
8444.575930	0.097943	0.467717	11580.243164
8444.576972	0.098009	0.467717	11682.368164
8444.577978	0.097954	0.467717	11780.910156
8444.578851	0.098009	0.467717	11866.471680
8444.579783	0.098090	0.467717	11957.891602
8444.580856	0.098053	0.467717	12063.102539
8444.581775	0.098038	0.467717	12153.200195
8445.639097	1.062316	0.411071	448.297241
8445.640138	1.568789	0.411071	2081.406738
8445.641168	1.547029	0.411071	3674.846436
8445.642052	1.507075	0.411071	5007.101074
8445.642996	1.465093	0.411071	6390.148437
8445.644062	1.420543	0.411071	7904.447266
8445.644996	1.382805	0.411071	9195.987305
8445.645858	1.349103	0.411071	10358.914062
8445.646928	0.713730	0.411071	11122.605469
8445.647945	0.100803	0.411071	11225.122070
8445.648812	0.097958	0.411071	11310.051758
8445.649786	0.098130	0.411071	11405.629883
8445.650839	0.098123	0.411071	11508.953125
8445.651750	0.098042	0.411071	11598.269531
8445.652616	0.098031	0.411071	11683.164062
8445.653684	0.098057	0.411071	11787.888672
8445.654672	0.097983	0.411071	11884.696289
8445.655567	0.097965	0.411071	11972.375000
8445.656541	0.098123	0.411071	12067.946289
8446.623725	1.094330	0.416823	515.429321
8446.624720	1.571602	0.416823	2079.172852
8446.625611	1.552416	0.416823	3462.375244
8446.626472	1.512235	0.416823	4764.409668
8446.627585	1.465316	0.416823	6395.306641
8446.628473	1.427260	0.416823	7662.712891
8446.629344	1.391675	0.416823	8874.861328
8446.630210	1.356328	0.416823	10049.441406
8446.631258	0.996995	0.416823	11094.291992
8446.632156	0.131433	0.416823	11212.319336
8446.633029	0.097888	0.416823	11297.775391
8446.633997	0.098068	0.416823	11392.705078
8446.634947	0.098053	0.416823	11485.855469
8446.635828	0.097976	0.416823	11572.172852
8446.636788	0.098108	0.416823	11666.356445
8446.637800	0.097987	0.416823	11765.519531
8446.638681	0.097914	0.416823	11851.781250
8446.639553	0.098005	0.416823	11937.242187
8446.640526	0.097943	0.416823	12032.541016
8447.685059	1.064344	0.427007	455.539398
8447.685929	1.563669	0.427007	1815.931885
8447.686816	1.557623	0.427007	3197.543701
8447.687866	1.513433	0.427007	4786.647949
8447.688761	1.472611	0.427007	6104.634766
8447.689636	1.435686	0.427007	7360.859863
8447.690653	1.395220	0.427007	8779.798828
8447.691570	1.358533	0.427007	10025.573242
8447.692490	1.174955	0.427007	11106.531250
8447.693356	0.191016	0.427007	11271.951172
8447.694402	0.097855	0.427007	11374.307617
8447.695280	0.097987	0.427007	11460.339844
8447.696153	0.097998	0.427007	11545.892578
8447.697113	0.098075	0.427007	11640.044922
8447.698060	0.097980	0.427007	11732.832031
8447.698968	0.097921	0.427007	11821.744141
8447.699845	0.097950	0.427007	11907.646484
8447.700877	0.098038	0.427007	12008.822266
8447.701773	0.097983	0.427007	12096.615234
8448.679957	1.144497	0.415559	572.248535
8448.680980	1.571847	0.415559	2180.247803
8448.681860	1.550251	0.415559	3544.469238
8448.682827	1.506965	0.415559	5001.705078
8448.683903	1.459684	0.415559	6572.324707
8448.684806	1.421184	0.415559	7855.653809
8448.685680	1.384753	0.415559	9065.928711
8448.686769	1.344262	0.415559	10529.829102
8448.687759	0.618728	0.415559	11142.370117
8448.688643	0.101851	0.415559	11232.406250
8448.689625	0.098126	0.415559	11328.766602
8448.690691	0.097961	0.415559	11433.193359
8448.691588	0.097910	0.415559	11521.018555
8448.692451	0.098024	0.415559	11605.613281
8448.693536	0.098101	0.415559	11712.052734
8448.694502	0.098013	0.415559	11806.733398
8448.695366	0.098027	0.415559	11891.428711
8448.696446	0.098020	0.415559	11997.290039
8448.697481	0.097954	0.415559	12098.672852
8449.735606	1.078407	0.420187	452.930969
8449.736700	1.570466	0.420187	2171.020996
8449.737696	1.545429	0.420187	3710.267822
8449.738593	1.505544	0.420187	5060.741211
8449.739587	1.461383	0.420187	6513.355957
8449.740651	1.417467	0.420187	8021.541016
8449.741540	1.381161	0.420187	9249.392578
8449.742436	1.345961	0.420187	10455.373047
8449.743526	0.598429	0.420187	11107.660156
8449.744478	0.099818	0.420187	11202.686523
8449.745345	0.098031	0.420187	11287.679687
8449.746388	0.098016	0.420187	11389.911133
8449.747422	0.097899	0.420187	11491.138672
8449.748312	0.098046	0.420187	11578.399414
8449.749253	0.098134	0.420187	11670.743164
8449.750296	0.098123	0.420187	11773.084961
8449.751224	0.097954	0.420187	11863.986328
8449.752083	0.098079	0.420187	11948.236328
8449.753135	0.098123	0.420187	12051.460937
8450.734539	1.077623	0.434560	473.076599
8450.735403	1.563739	0.434560	1824.147217
8450.736490	1.551046	0.434560	3510.134277
8450.737498	1.506061	0.434560	5028.243652
8450.738370	1.466558	0.434560	6307.082031
8450.739335	1.426183	0.434560	7683.348633
8450.740406	1.383384	0.434560	9164.953125
8450.741308	1.348228	0.434560	10381.054687
8450.742180	0.884443	0.434560	11152.289062
8450.743268	0.105157	0.434560	11266.700195
8450.744257	0.097939	0.434560	11363.562500
8450.745153	0.097983	0.434560	11451.355469
8450.746138	0.098057	0.434560	11547.941406
8450.747191	0.097991	0.434560	11651.125977
8450.748080	0.098013	0.434560	11738.258789
8450.748957	0.097998	0.434560	11824.203125
8450.750037	0.098174	0.434560	11930.230469
8450.750998	0.097903	0.434560	12024.315430
8450.751862	0.097998	0.434560	12108.985352
8451.790352	1.138198	0.412449	575.928345
8451.791245	1.569628	0.412449	1977.605835
8451.792111	1.554247	0.412449	3323.583496
8451.793226	1.506731	0.412449	5003.588379
8451.794190	1.463789	0.412449	6414.681152
8451.795063	1.426996	0.412449	7660.448730
8451.796131	1.383647	0.412449	9138.184570
8451.797173	1.344218	0.412449	10538.859375
8451.798073	0.735897	0.412449	11201.166992
8451.798985	0.106388	0.412449	11298.192383
8451.800062	0.098057	0.412449	11403.799805
8451.801014	0.097928	0.412449	11497.027344
8451.801877	0.098049	0.412449	11581.643555
8451.802919	0.098013	0.412449	11683.772461
8451.803931	0.098020	0.412449	11782.968750
8451.804818	0.098024	0.412449	11869.916016
8451.805768	0.098112	0.412449	11963.122070
8451.806820	0.098027	0.412449	12066.247070
8451.807741	0.098049	0.412449	12156.550781
8452.782651	1.192009	0.420626	655.605042
8452.783711	1.572473	0.420626	2322.426514
8452.784602	1.546307	0.420626	3700.186523
8452.785493	1.504944	0.420626	5041.091797
8452.786575	1.458113	0.420626	6618.769531
8452.787535	1.418298	0.420626	7980.335937
8452.788400	1.383094	0.420626	9176.712891
8452.789440	1.343643	0.420626	10574.101562
8452.790473	0.551682	0.420626	11143.989258
8452.791353	0.100540	0.420626	11232.463867
8452.792302	0.097972	0.420626	11325.439453
8452.793353	0.098031	0.420626	11428.469727
8452.794282	0.097972	0.420626	11519.486328
8452.795140	0.098057	0.420626	11603.619141
8452.796183	0.098101	0.420626	11705.938477
8452.797210	0.097874	0.420626	11806.455078
8452.798082	0.097972	0.420626	11891.886719
8452.799042	0.098134	0.420626	11986.094727
8452.800107	0.098093	0.420626	12090.564453
8453.849023	1.069197	0.386542	454.408661
8453.850020	1.566072	0.386542	2015.782227
8453.850955	1.551834	0.386542	3466.746582
8453.851881	1.511287	0.386542	4866.198242
8453.852749	1.470623	0.386542	6142.698730
8453.853804	1.427494	0.386542	7648.704590
8453.854694	1.391246	0.386542	8886.914062
8453.855572	1.357313	0.386542	10078.634766
8453.856566	1.023706	0.386542	11096.198242
8453.857520	0.131719	0.386542	11221.858398
8453.858435	0.097881	0.386542	11311.418945
8453.859300	0.098057	0.386542	11396.238281
8453.860334	0.098053	0.386542	11497.625000
8453.861214	0.097958	0.386542	11583.828125
8453.862089	0.097991	0.386542	11669.570312
8453.863022	0.098013	0.386542	11761.016602
8453.864003	0.098064	0.386542	11857.217773
8453.864915	0.098013	0.386542	11946.605469
8453.865790	0.098145	0.386542	12032.482422
8454.829589	1.149390	0.414781	581.591125
8454.830548	1.571459	0.414781	2088.620117
8454.831420	1.552936	0.414781	3442.780029
8454.832477	1.505435	0.414781	5034.024414
8454.833517	1.459647	0.414781	6552.057617
8454.834412	1.421993	0.414781	7824.741699
8454.835328	1.384720	0.414781	9093.145508
8454.836400	1.344089	0.414781	10534.009766
8454.837349	0.678673	0.414781	11178.070312
8454.838216	0.103923	0.414781	11268.171875
8454.839262	0.097947	0.414781	11370.624023
8454.840282	0.097976	0.414781	11470.559570
8454.841183	0.098046	0.414781	11558.898437
8454.842128	0.098119	0.414781	11651.621094
8454.843172	0.098104	0.414781	11754.041992
8454.844093	0.097983	0.414781	11844.285156
8454.844953	0.098042	0.414781	11928.601562
8454.846007	0.098196	0.414781	12032.099609
8454.847010	0.097987	0.414781	12130.380859
8455.904700	1.062638	0.368475	450.558472
8455.905738	1.567522	0.368475	2077.646240
8455.906778	1.547036	0.368475	3686.563965
8455.907653	1.506720	0.368475	5004.943848
8455.908578	1.465170	0.368475	6360.225586
8455.909653	1.420313	0.368475	7887.061523
8455.910605	1.382007	0.368475	9202.732422
8455.911477	1.348414	0.368475	10378.549805
8455.912521	0.710577	0.368475	11120.392578
8455.913546	0.100529	0.368475	11223.434570
8455.914440	0.098035	0.368475	11311.077148
8455.915392	0.098101	0.368475	11404.468750
8455.916442	0.098079	0.368475	11507.451172
8455.917371	0.098079	0.368475	11598.566406
8455.918234	0.098002	0.368475	11683.141602
8455.919304	0.098141	0.368475	11788.152344
8455.920307	0.098046	0.368475	11886.492187
8455.921198	0.098060	0.368475	11973.864258
8455.922187	0.098188	0.368475	12070.972656
8456.881591	1.080626	0.422088	454.943665
8456.882701	1.570474	0.422088	2198.169189
8456.883680	1.546088	0.422088	3711.789062
8456.884550	1.506650	0.422088	5022.574707
8456.885636	1.458625	0.422088	6606.642090
8456.886662	1.415977	0.422088	8059.434082
8456.887563	1.379583	0.422088	9302.437500
8456.888487	1.344408	0.422088	10544.669922
8456.889546	0.561680	0.422088	11139.488281
8456.890485	0.099503	0.422088	11232.921875
8456.891347	0.097936	0.422088	11317.342773
8456.892391	0.098071	0.422088	11419.729492
8456.893404	0.098042	0.422088	11519.045898
8456.894278	0.098053	0.422088	11604.744141
8456.895208	0.098042	0.422088	11695.922852
8456.896287	0.098005	0.422088	11801.670898
8456.897198	0.098020	0.422088	11890.966797
8456.898067	0.097980	0.422088	11976.111328
8456.899097	0.098181	0.422088	12077.238281
8457.957825	1.069281	0.360153	459.790833
8457.958847	1.568119	0.360153	2062.408447
8457.959891	1.546871	0.360153	3677.342041
8457.960801	1.505413	0.360153	5047.267578
8457.961735	1.464104	0.360153	6414.740723
8457.962795	1.419833	0.360153	7919.763672
8457.963730	1.382065	0.360153	9211.995117
8457.964591	1.348553	0.360153	10373.099609
8457.965640	0.727020	0.360153	11135.744141
8457.966658	0.101239	0.360153	11238.805664
8457.967542	0.098060	0.360153	11325.491211
8457.968507	0.098115	0.360153	11420.172852
8457.969535	0.098075	0.360153	11520.994141
8457.970465	0.098082	0.360153	11612.210937
8457.971321	0.098064	0.360153	11696.153320
8457.972351	0.098141	0.360153	11797.238281
8457.973366	0.097906	0.360153	11896.613281
8457.974256	0.098053	0.360153	11983.880859
8457.975216	0.098046	0.360153	12078.004883
8458.936775	1.087064	0.410185	471.785828
8458.937660	1.564991	0.410185	1856.803223
8458.938521	1.557184	0.410185	3197.538574
8458.939633	1.510836	0.410185	4877.588379
8458.940538	1.469608	0.410185	6207.583984
8458.941417	1.432595	0.410185	7466.834961
8458.942422	1.392107	0.410185	8865.902344
8458.943431	1.352725	0.410185	10230.801758
8458.944326	1.041409	0.410185	11162.862305
8458.945190	0.143866	0.410185	11287.162109
8458.946287	0.097852	0.410185	11394.504883
8458.947175	0.098020	0.410185	11481.546875
8458.948043	0.098031	0.410185	11566.637695
8458.949051	0.098049	0.410185	11665.471680
8458.950047	0.098071	0.410185	11763.150391
8458.950928	0.098112	0.410185	11849.586914
8458.951789	0.098163	0.410185	11934.105469
8458.952871	0.098086	0.410185	12040.234375
8458.953779	0.098038	0.410185	12129.252930
8460.005904	1.143278	0.381813	577.355164
8460.006833	1.570712	0.381813	2036.546387
8460.007698	1.554401	0.381813	3381.103027
8460.008737	1.508309	0.381813	4948.236328
8460.009764	1.462716	0.381813	6450.445801
8460.010656	1.425084	0.381813	7721.621094
8460.011608	1.387218	0.381813	9042.252930
8460.012673	1.345895	0.381813	10475.630859
8460.013616	0.741573	0.381813	11174.934570
8460.014535	0.104447	0.381813	11270.921875
8460.015410	0.097976	0.381813	11356.651367
8460.016347	0.098057	0.381813	11448.530273
8460.017289	0.097961	0.381813	11540.809570
8460.018207	0.098024	0.381813	11630.794922
8460.019071	0.097994	0.381813	11715.461914
8460.019998	0.098009	0.381813	11806.316406
8460.020945	0.098042	0.381813	11899.162109
8460.021833	0.098046	0.381813	11986.226562
8460.023057	0.097991	0.381813	12106.166992
8460.993019	1.134595	0.378921	546.874634
8460.993901	1.567716	0.378921	1929.600098
8460.994856	1.554148	0.378921	3413.811523
8460.995898	1.507577	0.378921	4984.706543
8460.996831	1.465562	0.378921	6352.075195
8460.997697	1.428453	0.378921	7589.115723
8460.998762	1.386270	0.378921	9065.493164
8460.999775	1.347202	0.378921	10430.208984
8461.000664	0.867631	0.378921	11201.532227
8461.001657	0.113694	0.378921	11314.430664
8461.002694	0.097958	0.378921	11416.012695
8461.003588	0.097965	0.378921	11503.593750
8461.004457	0.098060	0.378921	11588.808594
8461.005525	0.098013	0.378921	11693.486328
8461.006525	0.098005	0.378921	11791.492187
8461.007422	0.097969	0.378921	11879.370117
8461.008416	0.098093	0.378921	11976.875000
8461.009458	0.098024	0.378921	12079.015625
8461.010357	0.097939	0.378921	12167.063477
8462.055960	1.146599	0.370985	587.058777
8462.056864	1.569979	0.370985	2006.320068
8462.057730	1.553522	0.370985	3351.669922
8462.058839	1.506317	0.370985	5022.175781
8462.059805	1.462826	0.370985	6435.265625
8462.060681	1.426080	0.370985	7684.511719
8462.061712	1.385270	0.370985	9112.724609
8462.062768	1.344902	0.370985	10532.941406
8462.063644	0.770226	0.370985	11207.659180
8462.064544	0.108047	0.370985	11304.901367
8462.065635	0.098101	0.370985	11411.928711
8462.066584	0.097917	0.370985	11504.852539
8462.067454	0.098079	0.370985	11590.180664
8462.068469	0.098046	0.370985	11689.697266
8462.069494	0.098042	0.370985	11790.190430
8462.070384	0.098035	0.370985	11877.441406
8462.071314	0.098071	0.370985	11968.647461
8462.072368	0.098214	0.370985	12072.165039
8462.073318	0.097994	0.370985	12165.259766
8463.049249	1.148449	0.375928	590.302551
8463.050133	1.569602	0.375928	1977.830811
8463.051013	1.555305	0.375928	3346.499268
8463.052027	1.510682	0.375928	4878.331055
8463.053023	1.465378	0.375928	6337.847656
8463.053920	1.428010	0.375928	7618.772949
8463.054783	1.391353	0.375928	8819.509766
8463.055892	1.350549	0.375928	10317.269531
8463.056812	0.919501	0.375928	11163.209961
8463.057686	0.120710	0.375928	11268.710937
8463.058696	0.098112	0.375928	11367.803711
8463.059666	0.098064	0.375928	11462.925781
8463.060585	0.098108	0.375928	11553.086914
8463.061449	0.098134	0.375928	11637.874023
8463.062532	0.098049	0.375928	11744.061523
8463.063423	0.098027	0.375928	11831.404297
8463.064298	0.098057	0.375928	11917.204102
8463.065274	0.098188	0.375928	12013.036133
8463.066271	0.097961	0.375928	12110.704102
8464.105493	1.120671	0.367392	578.266418
8464.106441	1.570734	0.367392	2067.322021
8464.107373	1.551112	0.367392	3512.958496
8464.108244	1.511715	0.367392	4829.662109
8464.109285	1.465972	0.367392	6355.738770
8464.110168	1.428190	0.367392	7616.830078
8464.111036	1.392638	0.367392	8825.639648
8464.111962	1.356610	0.367392	10081.860352
8464.112953	1.043302	0.367392	11115.772461
8464.113887	0.133224	0.367392	11240.203125
8464.114762	0.097914	0.367392	11325.877930
8464.115817	0.098097	0.367392	11429.370117
8464.116725	0.097994	0.367392	11518.348633
8464.117597	0.098082	0.367392	11603.875977
8464.118457	0.098068	0.367392	11688.213867
8464.119515	0.098031	0.367392	11791.930664
8464.120400	0.098020	0.367392	11878.678711
8464.121267	0.098097	0.367392	11963.728516
8464.122264	0.098112	0.367392	12061.545898
8465.104392	1.104668	0.390180	558.961975
8465.105441	1.571371	0.390180	2207.330078
8465.106378	1.546721	0.390180	3656.607910
8465.107246	1.507013	0.390180	4964.695312
8465.108312	1.460149	0.390180	6521.213867
8465.109323	1.417753	0.390180	7954.562012
8465.110218	1.381827	0.390180	9191.297852
8465.111179	1.345646	0.390180	10484.463867
8465.112235	0.592603	0.390180	11110.251953
8465.113156	0.100283	0.390180	11202.612305
8465.114015	0.098013	0.390180	11286.805664
8465.115096	0.098163	0.390180	11392.919922
8465.116090	0.098024	0.390180	11490.355469
8465.116967	0.098031	0.390180	11576.329102
8465.117964	0.098137	0.390180	11674.171875
8465.118997	0.098123	0.390180	11775.532227
8465.119894	0.098027	0.390180	11863.462891
8465.120751	0.098013	0.390180	11947.459961
8465.121803	0.098174	0.390180	12050.739258
8466.156985	1.063726	0.361957	451.019653
8466.158013	1.567405	0.361957	2062.312012
8466.159049	1.547329	0.361957	3665.344971
8466.159930	1.507115	0.361957	4993.113770
8466.160850	1.465583	0.361957	6341.450684
8466.161924	1.421144	0.361957	7867.758789
8466.162874	1.382871	0.361957	9181.486328
8466.163740	1.349429	0.361957	10350.091797
8466.164788	0.749377	0.361957	11135.439453
8466.165811	0.101711	0.361957	11239.490234
8466.166684	0.098053	0.361957	11325.090820
8466.167637	0.098137	0.361957	11418.615234
8466.168691	0.098119	0.361957	11522.032227
8466.169624	0.098013	0.361957	11613.478516
8466.170494	0.098020	0.361957	11698.755859
8466.171547	0.098141	0.361957	11802.098633
8466.172553	0.097972	0.361957	11900.659180
8466.173441	0.098068	0.361957	11987.743164
8466.174397	0.098104	0.361957	12081.531250
8467.158567	1.156666	0.395107	600.309814
8467.159497	1.570756	0.395107	2061.112549
8467.160375	1.553251	0.395107	3424.866699
8467.161336	1.510609	0.395107	4876.562012
8467.162391	1.463701	0.395107	6420.766602
8467.163272	1.426165	0.395107	7677.217773
8467.164147	1.390173	0.395107	8893.619141
8467.165184	1.350447	0.395107	10294.032227
8467.166136	0.907819	0.395107	11158.275391
8467.167009	0.118890	0.395107	11262.066406
8467.167943	0.098046	0.395107	11353.640625
8467.168995	0.098020	0.395107	11456.757812
8467.169888	0.097983	0.395107	11544.256836
8467.170752	0.098009	0.395107	11628.936523
8467.171797	0.097969	0.395107	11731.313477
8467.172753	0.097998	0.395107	11825.000000
8467.173618	0.098002	0.395107	11909.771484
8467.174664	0.098005	0.395107	12012.285156
8467.175683	0.098035	0.395107	12112.182617
8468.210104	1.057603	0.336994	444.193054
8468.210972	1.561926	0.336994	1799.945068
8468.212085	1.550643	0.336994	3525.811035
8468.212993	1.510023	0.336994	4896.912109
8468.213868	1.470487	0.336994	6183.588379
8468.214752	1.431731	0.336994	7449.238281
8468.215815	1.389719	0.336994	8926.509766
8468.216714	1.355032	0.336994	10144.683594
8468.217579	1.061283	0.336994	11062.693359
8468.218674	0.125867	0.336994	11200.517578
8468.219568	0.097804	0.336994	11287.954102
8468.220440	0.097994	0.336994	11373.405273
8468.221437	0.098086	0.336994	11471.197266
8468.222426	0.097987	0.336994	11568.106445
8468.223309	0.098013	0.336994	11654.651367
8468.224169	0.097980	0.336994	11738.914062
8468.225224	0.098042	0.336994	11842.348633
8468.226139	0.097958	0.336994	11931.980469
8468.227014	0.097939	0.336994	12017.677734
8469.211074	1.072317	0.389914	461.096252
8469.212058	1.564424	0.389914	2000.489258
8469.212954	1.554485	0.389914	3393.307617
8469.213874	1.513927	0.389914	4786.120605
8469.214744	1.474003	0.389914	6068.502930
8469.215708	1.432705	0.389914	7449.630859
8469.216626	1.395385	0.389914	8730.593750
8469.217521	1.360668	0.389914	9948.391602
8469.218489	1.157461	0.389914	11068.813477
8469.219426	0.169061	0.389914	11227.223633
8469.220346	0.097830	0.389914	11317.226562
8469.221209	0.098031	0.389914	11401.827148
8469.222240	0.098057	0.389914	11502.923828
8469.223117	0.098005	0.389914	11588.875000
8469.224035	0.098093	0.389914	11678.924805
8469.224894	0.097994	0.389914	11763.101562
8469.225865	0.097936	0.389914	11858.197266
8469.226794	0.098024	0.389914	11949.261719
8469.227670	0.098060	0.389914	12035.162109
8470.262730	1.089840	0.328386	467.541382
8470.263601	1.563907	0.328386	1829.704712
8470.264701	1.549834	0.328386	3534.521973
8470.265688	1.506248	0.328386	5021.188477
8470.266557	1.467191	0.328386	6296.177734
8470.267607	1.423030	0.328386	7790.358887
8470.268656	1.381176	0.328386	9239.211914
8470.269549	1.346565	0.328386	10441.694336
8470.270493	0.776667	0.328386	11174.868164
8470.271556	0.101624	0.328386	11282.893555
8470.272495	0.097947	0.328386	11374.865234
8470.273362	0.098046	0.328386	11459.871094
8470.274412	0.097950	0.328386	11562.718750
8470.275429	0.097980	0.328386	11662.364258
8470.276319	0.098075	0.328386	11749.651367
8470.277257	0.098046	0.328386	11841.618164
8470.278303	0.098141	0.328386	11944.273437
8470.279230	0.098086	0.328386	12035.199219
8470.280090	0.098049	0.328386	12119.521484
8471.264812	1.170015	0.369515	611.917725
8471.265747	1.571268	0.369515	2081.053711
8471.266608	1.553079	0.369515	3418.254395
8471.267669	1.506500	0.369515	5016.651367
8471.268690	1.461039	0.369515	6508.372070
8471.269573	1.423923	0.369515	7765.696289
8471.270547	1.385145	0.369515	9114.828125
8471.271604	1.344573	0.369515	10536.041016
8471.272523	0.725632	0.369515	11202.897461
8471.273380	0.106040	0.369515	11293.773437
8471.274429	0.098016	0.369515	11396.592773
8471.275432	0.098119	0.369515	11495.005859
8471.276321	0.098035	0.369515	11582.158203
8471.277296	0.098192	0.369515	11677.895508
8471.278352	0.098112	0.369515	11781.500977
8471.279269	0.098079	0.369515	11871.439453
8471.280133	0.098053	0.369515	11956.157227
8471.281231	0.098086	0.369515	12063.855469
8471.282202	0.098093	0.369515	12159.104492
8472.314400	1.155099	0.330911	591.410645
8472.315417	1.572096	0.330911	2190.232178
8472.316294	1.549567	0.330911	3549.202148
8472.317282	1.505610	0.330911	5036.745117
8472.318331	1.459255	0.330911	6567.503906
8472.319236	1.421199	0.330911	7853.688477
8472.320113	1.384138	0.330911	9067.578125
8472.321218	1.343441	0.330911	10552.080078
8472.322182	0.644810	0.330911	11173.676758
8472.323046	0.102839	0.330911	11262.530273
8472.324073	0.098024	0.330911	11363.200195
8472.325101	0.098101	0.330911	11464.047852
8472.325993	0.098086	0.330911	11551.540039
8472.326881	0.098068	0.330911	11638.624023
8472.327950	0.098214	0.330911	11743.615234
8472.328895	0.098031	0.330911	11836.254883
8472.329757	0.097994	0.330911	11920.725586
8472.330783	0.098188	0.330911	12021.466797
8472.331813	0.098060	0.330911	12122.468750
8473.315780	1.081600	0.388689	467.251343
8473.316646	1.562794	0.388689	1820.631104
8473.317756	1.549486	0.388689	3540.560547
8473.318723	1.506683	0.388689	4997.523437
8473.319598	1.467396	0.388689	6281.495117
8473.320633	1.423898	0.388689	7755.229492
8473.321677	1.382161	0.388689	9198.205078
8473.322570	1.347521	0.388689	10401.541016
8473.323502	0.824604	0.388689	11170.072266
8473.324573	0.102792	0.388689	11280.162109
8473.325521	0.097972	0.388689	11373.040039
8473.326384	0.098079	0.388689	11457.681641
8473.327442	0.098174	0.388689	11561.549805
8473.328453	0.097998	0.388689	11660.625977
8473.329336	0.098090	0.388689	11747.239258
8473.330299	0.098046	0.388689	11841.657227
8473.331343	0.098002	0.388689	11943.970703
8473.332265	0.098042	0.388689	12034.365234
8473.333123	0.098082	0.388689	12118.519531
