time (s)	coil I (A)	last det (V)	int current (uC)
6032.803792	1.089272	0.611641	464.030090
6032.804864	1.570693	0.611641	2147.813477
6032.805888	1.546399	0.611641	3731.326172
6032.806785	1.505966	0.611641	5082.177246
6032.807745	1.463573	0.611641	6487.207031
6032.808792	1.419547	0.611641	7973.472656
6032.809715	1.382073	0.611641	9249.125977
6032.810584	0.755804	0.611641	9905.919922
6032.811652	0.101638	0.611641	10014.469727
6032.812655	0.097943	0.611641	10112.707031
6032.813533	0.097950	0.611641	10198.707031
6032.814506	0.098108	0.611641	10294.166016
6032.815549	0.097998	0.611641	10396.377930
6032.816450	0.097928	0.611641	10484.611328
6032.817308	0.097936	0.611641	10568.640625
6032.818381	0.097998	0.611641	10673.792969
6032.819385	0.097910	0.611641	10772.094727
6032.820275	0.097859	0.611641	10859.189453
6033.883586	1.066783	0.525713	456.583313
6033.884623	1.567819	0.525713	2082.411133
6033.885664	1.548131	0.525713	3694.015625
6033.886551	1.507731	0.525713	5031.373047
6033.887481	1.465646	0.525713	6394.423340
6033.888573	1.420686	0.525713	7945.812500
6033.889499	1.382952	0.525713	9226.425781
6033.890374	0.771896	0.525713	9901.834961
6033.891409	0.102396	0.525713	10007.815430
6033.892434	0.097885	0.525713	10108.147461
6033.893328	0.098038	0.525713	10195.793945
6033.894287	0.098130	0.525713	10289.900391
6033.895342	0.098053	0.525713	10393.346680
6033.896270	0.097994	0.525713	10484.285156
6033.897137	0.098093	0.525713	10569.332031
6033.898198	0.098013	0.525713	10673.323242
6033.899192	0.097994	0.525713	10770.729492
6033.900078	0.097983	0.525713	10857.542969
6034.859470	1.076887	0.622630	477.061066
6034.860347	1.564508	0.622630	1849.134644
6034.861207	1.560271	0.622630	3190.967773
6034.862254	1.515787	0.622630	4777.997070
6034.863141	1.475207	0.622630	6086.505859
6034.864009	1.437982	0.622630	7334.674316
6034.864946	1.399603	0.622630	8646.102539
6034.865919	1.177372	0.622630	9791.685547
6034.866841	0.169065	0.622630	9947.563477
6034.867719	0.097899	0.622630	10033.518555
6034.868749	0.097998	0.622630	10134.457031
6034.869652	0.097874	0.622630	10222.836914
6034.870530	0.097972	0.622630	10308.856445
6034.871389	0.097969	0.622630	10393.011719
6034.872441	0.097980	0.622630	10496.085937
6034.873318	0.098053	0.622630	10582.078125
6034.874184	0.097965	0.622630	10666.916016
6034.875177	0.098104	0.622630	10764.333984
6035.936201	1.074910	0.595411	466.510742
6035.937063	1.563021	0.595411	1813.835083
6035.938178	1.550834	0.595411	3543.014648
6035.939153	1.508064	0.595411	5013.376953
6035.940023	1.468722	0.595411	6291.165039
6035.941054	1.425447	0.595411	7760.800781
6035.942094	1.383794	0.595411	9199.946289
6035.942989	0.765293	0.595411	9884.883789
6035.943902	0.107355	0.595411	9982.898437
6035.944983	0.097983	0.595411	10088.818359
6035.945926	0.097969	0.595411	10181.203125
6035.946802	0.098112	0.595411	10267.148437
6035.947849	0.098159	0.595411	10369.920898
6035.948871	0.098038	0.595411	10470.116211
6035.949761	0.098097	0.595411	10557.422852
6035.950710	0.098192	0.595411	10650.607422
6035.951756	0.097950	0.595411	10753.063477
6035.952680	0.098002	0.595411	10843.617187
6036.914244	1.202179	0.609619	675.624573
6036.915298	1.573154	0.609619	2333.729248
6036.916189	1.547311	0.609619	3712.383301
6036.917081	1.505925	0.609619	5055.668945
6036.918187	1.458175	0.609619	6668.410645
6036.919141	1.418445	0.609619	8021.606934
6036.920007	1.383237	0.609619	9219.490234
6036.921039	0.600842	0.609619	9839.559570
6036.922075	0.099192	0.609619	9942.322266
6036.922958	0.098064	0.609619	10028.913086
6036.923904	0.098038	0.609619	10121.657227
6036.924951	0.097972	0.609619	10224.234375
6036.925885	0.098005	0.609619	10315.771484
6036.926742	0.098123	0.609619	10399.862305
6036.927798	0.098130	0.609619	10503.487305
6036.928813	0.097991	0.609619	10602.948242
6036.929683	0.098038	0.609619	10688.241211
6036.930636	0.098152	0.609619	10781.780273
6037.987383	1.173043	0.660569	644.000732
6037.988434	1.572664	0.660569	2296.870117
6037.989344	1.546875	0.660569	3704.526367
6037.990213	1.506039	0.660569	5013.273926
6037.991332	1.458234	0.660569	6645.037109
6037.992312	1.417701	0.660569	8034.384766
6037.993182	1.382358	0.660569	9237.037109
6037.994247	0.547240	0.660569	9819.847656
6037.995266	0.098723	0.660569	9920.446289
6037.996152	0.098002	0.660569	10007.275391
6037.997070	0.098013	0.660569	10097.250977
6037.998126	0.098112	0.660569	10200.856445
6037.999063	0.097969	0.660569	10292.653320
6037.999922	0.097914	0.660569	10376.761719
6038.000965	0.098082	0.660569	10479.061523
6038.001991	0.097906	0.660569	10579.513672
6038.002865	0.098038	0.660569	10665.199219
6038.003823	0.097987	0.660569	10759.071289
6038.970299	1.058972	0.605067	446.886292
6038.971241	1.562175	0.605067	1918.455322
6038.972223	1.553778	0.605067	3444.265381
6038.973148	1.513151	0.605067	4843.929687
6038.974027	1.473157	0.605067	6138.834473
6038.975061	1.430372	0.605067	7617.839355
6038.975962	1.392916	0.605067	8872.856445
6038.976839	1.099398	0.605067	9837.028320
6038.977729	0.153992	0.605067	9974.081055
6038.978772	0.097833	0.605067	10076.121094
6038.979658	0.097994	0.605067	10162.944336
6038.980529	0.098035	0.605067	10248.333008
6038.981525	0.098046	0.605067	10345.986328
6038.982437	0.098024	0.605067	10435.383789
6038.983341	0.097998	0.605067	10523.973633
6038.984221	0.098016	0.605067	10610.228516
6038.985230	0.098016	0.605067	10709.126953
6038.986138	0.098060	0.605067	10798.166016
6040.038855	1.069263	0.673169	465.129242
6040.039723	1.563047	0.673169	1821.853882
6040.040775	1.553423	0.673169	3456.054687
6040.041789	1.508558	0.673169	4985.732910
6040.042681	1.468488	0.673169	6295.624023
6040.043632	1.428658	0.673169	7654.278320
6040.044691	1.385555	0.673169	9121.581055
6040.045619	0.798981	0.673169	9863.035156
6040.046477	0.110142	0.673169	9957.537109
6040.047540	0.098027	0.673169	10061.740234
6040.048548	0.098075	0.673169	10160.599609
6040.049425	0.098079	0.673169	10246.614258
6040.050383	0.098002	0.673169	10340.500000
6040.051456	0.098082	0.673169	10445.742187
6040.052361	0.097998	0.673169	10534.430664
6040.053226	0.098031	0.673169	10619.227539
6040.054288	0.097910	0.673169	10723.208008
6040.055281	0.097987	0.673169	10820.508789
6041.025998	1.079656	0.619057	466.411285
6041.026977	1.564025	0.619057	1997.591431
6041.028034	1.548893	0.619057	3634.770996
6041.028944	1.507877	0.619057	5006.939453
6041.029809	1.467708	0.619057	6276.506348
6041.030895	1.423667	0.619057	7822.608887
6041.031883	1.383380	0.619057	9189.388672
6041.032757	0.800032	0.619057	9888.616211
6041.033733	0.107739	0.619057	9993.769531
6041.034779	0.098068	0.619057	10096.348633
6041.035681	0.098009	0.619057	10184.752930
6041.036542	0.097950	0.619057	10269.087891
6041.037629	0.098090	0.619057	10375.710937
6041.038615	0.097921	0.619057	10472.260742
6041.039480	0.098020	0.619057	10557.047852
6041.040526	0.098196	0.619057	10659.760742
6041.041569	0.098042	0.619057	10762.018555
6041.042457	0.098068	0.619057	10849.102539
6042.089974	1.094586	0.659332	526.495972
6042.091030	1.570814	0.659332	2185.275879
6042.091987	1.548036	0.659332	3666.746094
6042.092849	1.508485	0.659332	4967.060059
6042.093889	1.461954	0.659332	6487.492676
6042.094912	1.419382	0.659332	7939.520508
6042.095811	1.383234	0.659332	9183.047852
6042.096774	0.705645	0.659332	9862.583984
6042.097817	0.100133	0.659332	9967.022461
6042.098742	0.098027	0.659332	10057.697266
6042.099607	0.098002	0.659332	10142.468750
6042.100667	0.098130	0.659332	10246.486328
6042.101668	0.097965	0.659332	10344.549805
6042.102562	0.097965	0.659332	10432.130859
6042.103515	0.098119	0.659332	10525.637695
6042.104558	0.098042	0.659332	10627.895508
6042.105473	0.097994	0.659332	10717.560547
6042.106335	0.097969	0.659332	10802.009766
6043.081230	1.136041	0.677121	570.292725
6043.082124	1.569357	0.677121	1973.297607
6043.082992	1.555027	0.677121	3323.061035
6043.084088	1.508331	0.677121	4976.192383
6043.085057	1.464789	0.677121	6395.572754
6043.085938	1.428021	0.677121	7653.659180
6043.086942	1.387694	0.677121	9046.904297
6043.087989	0.729514	0.677121	9810.705078
6043.088885	0.104352	0.677121	9904.204102
6043.089803	0.097892	0.677121	9994.068359
6043.090666	0.097943	0.677121	10078.593750
6043.091669	0.097950	0.677121	10176.837891
6043.092584	0.098020	0.677121	10266.526367
6043.093449	0.097954	0.677121	10351.256836
6043.094421	0.097994	0.677121	10446.507812
6043.095349	0.097958	0.677121	10537.413086
6043.096263	0.097841	0.677121	10626.839844
6043.097162	0.098005	0.677121	10714.946289
6044.142524	1.056790	0.668183	449.135590
6044.143541	1.566716	0.668183	2042.486084
6044.144587	1.548545	0.668183	3662.264160
6044.145462	1.508584	0.668183	4982.275391
6044.146349	1.467026	0.668183	6283.527832
6044.147447	1.422264	0.668183	7845.173828
6044.148410	1.383541	0.668183	9177.524414
6044.149284	0.817244	0.668183	9891.794922
6044.150309	0.104077	0.668183	9998.473633
6044.151341	0.097932	0.668183	10099.540039
6044.152229	0.097914	0.668183	10186.487305
6044.153164	0.098075	0.668183	10278.187500
6044.154215	0.098016	0.668183	10381.203125
6044.155151	0.098038	0.668183	10472.966797
6044.156013	0.097961	0.668183	10557.409180
6044.157061	0.098134	0.668183	10660.252930
6044.158077	0.097987	0.668183	10759.807617
6044.158966	0.098024	0.668183	10846.950195
6045.137431	1.144347	0.737804	576.750793
6045.138365	1.570320	0.737804	2043.429443
6045.139233	1.554492	0.737804	3392.728516
6045.140292	1.508141	0.737804	4989.849609
6045.141321	1.462251	0.737804	6494.505859
6045.142201	1.424982	0.737804	7748.489746
6045.143173	1.386625	0.737804	9096.289062
6045.144233	0.672385	0.737804	9809.017578
6045.145144	0.101704	0.737804	9901.669922
6045.146009	0.097947	0.737804	9986.393555
6045.147062	0.098038	0.737804	10089.627930
6045.148052	0.097830	0.737804	10186.479492
6045.148942	0.097896	0.737804	10273.606445
6045.149902	0.097998	0.737804	10367.684570
6045.150966	0.097994	0.737804	10471.950195
6045.151875	0.097910	0.737804	10560.950195
6045.152736	0.097969	0.737804	10645.301758
6045.153818	0.098009	0.737804	10751.347656
6046.195147	1.077858	0.685440	468.868073
6046.196012	1.563362	0.685440	1821.176025
6046.197003	1.555514	0.685440	3362.690430
6046.198004	1.511089	0.685440	4875.290527
6046.198894	1.471205	0.685440	6184.663086
6046.199761	1.433251	0.685440	7427.291504
6046.200858	1.390177	0.685440	8952.315430
6046.201776	0.971019	0.685440	9843.710937
6046.202655	0.125369	0.685440	9953.910156
6046.203627	0.097961	0.685440	10049.128906
6046.204627	0.097892	0.685440	10147.020508
6046.205515	0.097972	0.685440	10234.019531
6046.206379	0.097987	0.685440	10318.680664
6046.207451	0.097954	0.685440	10423.687500
6046.208360	0.097998	0.685440	10512.767578
6046.209232	0.097950	0.685440	10598.180664
6046.210210	0.098031	0.685440	10694.054687
6046.211231	0.097885	0.685440	10793.995117
6047.191500	1.081945	0.769463	469.563965
6047.192376	1.563992	0.769463	1839.620728
6047.193427	1.552079	0.769463	3470.855469
6047.194449	1.506724	0.769463	5010.727051
6047.195344	1.466836	0.769463	6323.545410
6047.196313	1.426465	0.769463	7705.790039
6047.197365	1.383688	0.769463	9161.429687
6047.198301	0.739471	0.769463	9853.575195
6047.199167	0.106198	0.769463	9945.541992
6047.200234	0.098031	0.769463	10050.140625
6047.201215	0.097958	0.769463	10146.237305
6047.202103	0.097928	0.769463	10233.198242
6047.203079	0.098035	0.769463	10328.879883
6047.204132	0.097914	0.769463	10431.983398
6047.205038	0.097991	0.769463	10520.762695
6047.205899	0.098112	0.769463	10605.236328
6047.206981	0.098097	0.769463	10711.376953
6047.207979	0.097983	0.769463	10809.164062
6048.248762	1.060492	0.696530	447.527588
6048.249781	1.566445	0.696530	2043.735229
6048.250831	1.548149	0.696530	3669.291992
6048.251719	1.507676	0.696530	5008.107910
6048.252612	1.466360	0.696530	6317.567383
6048.253711	1.421602	0.696530	7879.907227
6048.254661	1.383274	0.696530	9194.017578
6048.255528	0.811095	0.696530	9897.237305
6048.256546	0.104216	0.696530	10003.329102
6048.257574	0.097936	0.696530	10104.006836
6048.258457	0.097910	0.696530	10190.461914
6048.259386	0.097972	0.696530	10281.478516
6048.260438	0.098042	0.696530	10384.619141
6048.261380	0.098090	0.696530	10477.019531
6048.262243	0.098027	0.696530	10561.617187
6048.263285	0.098086	0.696530	10663.822266
6048.264299	0.098053	0.696530	10763.248047
6048.265191	0.098079	0.696530	10850.734375
6049.245109	1.056665	0.775106	442.742676
6049.246080	1.562509	0.775106	1959.938477
6049.247136	1.549054	0.775106	3595.739258
6049.248062	1.507372	0.775106	4991.565430
6049.248931	1.467480	0.775106	6266.805664
6049.250010	1.422891	0.775106	7802.104492
6049.251011	1.382413	0.775106	9185.900391
6049.251912	0.767761	0.775106	9877.653320
6049.252889	0.106014	0.775106	9981.229492
6049.253952	0.097991	0.775106	10085.393555
6049.254853	0.097950	0.775106	10173.646484
6049.255718	0.097958	0.775106	10258.379883
6049.256814	0.098027	0.775106	10365.817383
6049.257799	0.097914	0.775106	10462.262695
6049.258666	0.098009	0.775106	10547.236328
6049.259742	0.098075	0.775106	10652.764648
6049.260783	0.098031	0.775106	10754.814453
6049.261678	0.098013	0.775106	10842.536133
6050.301890	1.069409	0.709747	459.845978
6050.302764	1.563318	0.709747	1826.185791
6050.303627	1.558568	0.709747	3171.229980
6050.304629	1.516761	0.709747	4691.024902
6050.305559	1.475017	0.709747	6062.791016
6050.306443	1.437349	0.709747	7333.407227
6050.307402	1.398918	0.709747	8674.969727
6050.308348	1.181363	0.709747	9792.539062
6050.309244	0.177480	0.709747	9951.561523
6050.310137	0.097958	0.709747	10039.038086
6050.311135	0.097976	0.709747	10136.818359
6050.312053	0.097837	0.709747	10226.632812
6050.312934	0.097972	0.709747	10312.946289
6050.313852	0.097958	0.709747	10402.871094
6050.314787	0.097965	0.709747	10494.468750
6050.315712	0.098071	0.709747	10585.184570
6050.316577	0.098060	0.709747	10670.006836
6050.317613	0.097972	0.709747	10771.505859
6051.298745	1.072837	0.773652	454.882843
6051.299795	1.569155	0.773652	2102.495850
6051.300800	1.547410	0.773652	3657.642578
6051.301687	1.507896	0.773652	4995.145996
6051.302667	1.464137	0.773652	6430.000000
6051.303729	1.419825	0.773652	7937.854492
6051.304641	1.382900	0.773652	9199.059570
6051.305511	0.778967	0.773652	9876.760742
6051.306606	0.101301	0.773652	9987.685547
6051.307586	0.097906	0.773652	10083.633789
6051.308451	0.097892	0.773652	10168.310547
6051.309522	0.098020	0.773652	10273.290039
6051.310559	0.097950	0.773652	10374.864258
6051.311452	0.098020	0.773652	10462.396484
6051.312339	0.097991	0.773652	10549.314453
6051.313424	0.097983	0.773652	10655.625977
6051.314376	0.097928	0.773652	10748.853516
6051.315236	0.098013	0.773652	10833.144531
6052.355509	1.056705	0.718528	443.816193
6052.356537	1.567423	0.718528	2055.127197
6052.357518	1.549885	0.718528	3575.564697
6052.358392	1.510800	0.718528	4896.003418
6052.359462	1.462943	0.718528	6461.352539
6052.360507	1.419393	0.718528	7944.618652
6052.361405	1.382904	0.718528	9186.466797
6052.362365	0.720026	0.718528	9877.691406
6052.363426	0.100056	0.718528	9983.850586
6052.364366	0.097837	0.718528	10075.817383
6052.365229	0.097939	0.718528	10160.338867
6052.366291	0.097914	0.718528	10264.323242
6052.367292	0.097844	0.718528	10362.265625
6052.368175	0.097950	0.718528	10448.755859
6052.369155	0.097939	0.718528	10544.736328
6052.370196	0.097811	0.718528	10646.557617
6052.371110	0.097841	0.718528	10735.984375
6052.371970	0.097837	0.718528	10820.124023
6053.352965	1.130552	0.775654	563.014771
6053.353960	1.571616	0.775654	2126.772949
6053.354858	1.551273	0.775654	3519.816406
6053.355866	1.506954	0.775654	5038.826172
6053.356902	1.460706	0.775654	6552.117187
6053.357807	1.422308	0.775654	7839.306152
6053.358671	1.385654	0.775654	9036.511719
6053.359768	0.691340	0.775654	9794.912109
6053.360733	0.101265	0.775654	9892.632812
6053.361596	0.097815	0.775654	9977.046875
6053.362689	0.098005	0.775654	10084.166992
6053.363720	0.097826	0.775654	10185.025391
6053.364600	0.097939	0.775654	10271.211914
6053.365521	0.097870	0.775654	10361.349609
6053.366599	0.097914	0.775654	10466.900391
6053.367532	0.097961	0.775654	10558.298828
6053.368402	0.097903	0.775654	10643.474609
6053.369429	0.098071	0.775654	10744.193359
6054.409275	1.189640	0.738287	642.405579
6054.410311	1.572100	0.738287	2271.100830
6054.411202	1.547571	0.738287	3649.986328
6054.412158	1.505079	0.738287	5088.842285
6054.413220	1.457468	0.738287	6636.673828
6054.414163	1.418339	0.738287	7974.166992
6054.415036	1.382487	0.738287	9181.078125
6054.416109	0.571073	0.738287	9793.839844
6054.417105	0.098708	0.738287	9892.153320
6054.417991	0.097925	0.738287	9978.915039
6054.418952	0.098013	0.738287	10073.105469
6054.419989	0.097928	0.738287	10174.657227
6054.420906	0.097848	0.738287	10264.383789
6054.421768	0.097855	0.738287	10348.735352
6054.422841	0.097983	0.738287	10453.871094
6054.423839	0.097815	0.738287	10551.490234
6054.424718	0.097939	0.738287	10637.579102
6054.425712	0.097976	0.738287	10734.967773
6055.407553	1.073650	0.776085	461.669464
6055.408428	1.563193	0.776085	1829.463623
6055.409293	1.558286	0.776085	3177.381348
6055.410340	1.514637	0.776085	4763.207031
6055.411217	1.474592	0.776085	6056.424316
6055.412091	1.437554	0.776085	7312.846191
6055.413094	1.397618	0.776085	8714.657227
6055.414043	1.133328	0.776085	9790.185547
6055.414947	0.158101	0.776085	9933.108398
6055.415820	0.097705	0.776085	10018.405273
6055.416839	0.097888	0.776085	10118.153320
6055.417733	0.097797	0.776085	10205.583984
6055.418605	0.097899	0.776085	10290.952148
6055.419530	0.097965	0.776085	10381.570312
6055.420518	0.097793	0.776085	10478.189453
6055.421435	0.097767	0.776085	10567.841797
6055.422316	0.097800	0.776085	10654.003906
6055.423322	0.097939	0.776085	10752.531250
6056.461761	1.092806	0.763622	468.813965
6056.462868	1.570100	0.763622	2206.915039
6056.463830	1.546443	0.763622	3694.593018
6056.464705	1.507097	0.763622	5013.302734
6056.465728	1.461035	0.763622	6507.941406
6056.466773	1.417965	0.763622	7989.714844
6056.467670	1.381765	0.763622	9229.158203
6056.468619	0.702792	0.763622	9896.107422
6056.469667	0.099928	0.763622	10000.832031
6056.470607	0.097910	0.763622	10092.867187
6056.471468	0.097928	0.763622	10177.183594
6056.472529	0.097961	0.763622	10281.121094
6056.473536	0.097859	0.763622	10379.665039
6056.474426	0.097936	0.763622	10466.828125
6056.475375	0.098042	0.763622	10559.870117
6056.476425	0.097932	0.763622	10662.699219
6056.477341	0.097830	0.763622	10752.311523
6056.478203	0.097789	0.763622	10836.605469
6057.460688	1.087163	0.776033	480.526093
6057.461550	1.562930	0.776033	1827.771606
6057.462644	1.550680	0.776033	3524.215332
6057.463625	1.507244	0.776033	5002.821289
6057.464488	1.467960	0.776033	6269.670898
6057.465489	1.426154	0.776033	7697.250488
6057.466540	1.384303	0.776033	9152.153320
6057.467431	0.813538	0.776033	9877.015625
6057.468297	0.109951	0.776033	9972.233398
6057.469403	0.097833	0.776033	10080.436523
6057.470365	0.097954	0.776033	10174.667969
6057.471236	0.097998	0.776033	10260.024414
6057.472252	0.097983	0.776033	10359.575195
6057.473290	0.097965	0.776033	10461.262695
6057.474179	0.097914	0.776033	10548.307617
6057.475097	0.097848	0.776033	10638.131836
6057.476152	0.097969	0.776033	10741.489258
6057.477101	0.097826	0.776033	10834.326172
6058.515898	1.061107	0.784432	445.665009
6058.516893	1.568024	0.784432	2005.848633
6058.517814	1.553646	0.784432	3436.756836
6058.518695	1.514542	0.784432	4771.068359
6058.519562	1.473765	0.784432	6048.822266
6058.520564	1.432617	0.784432	7484.304687
6058.521471	1.395103	0.784432	8749.662109
6058.522351	1.146324	0.784432	9758.427734
6058.523373	0.138387	0.784432	9899.859375
6058.524269	0.097793	0.784432	9987.481445
6058.525187	0.097797	0.784432	10077.258789
6058.526050	0.097837	0.784432	10161.692383
6058.527056	0.097943	0.784432	10260.223633
6058.527971	0.097914	0.784432	10349.814453
6058.528833	0.097899	0.784432	10434.203125
6058.529854	0.097881	0.784432	10534.139648
6058.530726	0.097870	0.784432	10619.482422
6058.531647	0.097917	0.784432	10709.664062
6059.513793	1.071907	0.784883	459.847961
6059.514659	1.562003	0.784883	1812.542725
6059.515761	1.550460	0.784883	3521.149902
6059.516737	1.506570	0.784883	4991.562012
6059.517627	1.467023	0.784883	6297.211914
6059.518628	1.425231	0.784883	7723.868164
6059.519685	1.383113	0.784883	9185.818359
6059.520578	0.777422	0.784883	9880.055664
6059.521442	0.108153	0.784883	9973.500000
6059.522529	0.097874	0.784883	10079.888672
6059.523487	0.097917	0.784883	10173.693359
6059.524349	0.097815	0.784883	10258.009766
6059.525399	0.097947	0.784883	10360.853516
6059.526430	0.097841	0.784883	10461.727539
6059.527310	0.097892	0.784883	10547.872070
6059.528246	0.097877	0.784883	10639.485352
6059.529297	0.097914	0.784883	10742.392578
6059.530236	0.097906	0.784883	10834.327148
6060.568626	1.186285	0.797459	642.966675
6060.569669	1.571799	0.797459	2282.353271
6060.570569	1.546981	0.797459	3674.636230
6060.571497	1.505167	0.797459	5071.431641
6060.572567	1.457791	0.797459	6631.267578
6060.573516	1.418254	0.797459	7977.190918
6060.574387	1.382754	0.797459	9181.569336
6060.575444	0.614755	0.797459	9831.365234
6060.576452	0.099287	0.797459	9931.446289
6060.577336	0.097914	0.797459	10018.001953
6060.578307	0.097833	0.797459	10112.998047
6060.579347	0.097888	0.797459	10214.801758
6060.580267	0.097892	0.797459	10304.862305
6060.581127	0.097848	0.797459	10389.011719
6060.582195	0.097936	0.797459	10493.607422
6060.583190	0.097716	0.797459	10590.834961
6060.584062	0.097903	0.797459	10676.206055
6060.585024	0.097903	0.797459	10770.388672
6061.567932	1.060880	0.803683	451.934906
6061.568851	1.561549	0.803683	1886.998535
6061.569883	1.551614	0.803683	3488.264160
6061.570776	1.511744	0.803683	4838.251953
6061.571648	1.472333	0.803683	6122.125977
6061.572638	1.431010	0.803683	7538.825195
6061.573554	1.392437	0.803683	8814.296875
6061.574476	1.083904	0.803683	9813.656250
6061.575350	0.148553	0.803683	9943.492187
6061.576386	0.097822	0.803683	10044.835937
6061.577272	0.097804	0.803683	10131.490234
6061.578148	0.097950	0.803683	10217.294922
6061.579105	0.097778	0.803683	10310.869141
6061.580052	0.097848	0.803683	10403.531250
6061.580971	0.097815	0.803683	10493.422852
6061.581837	0.097885	0.803683	10578.190430
6061.582881	0.097866	0.803683	10680.362305
6061.583763	0.097826	0.803683	10766.644531
6062.621112	1.081472	0.800517	455.299774
6062.622228	1.570360	0.800517	2207.821533
6062.623185	1.546721	0.800517	3688.033691
6062.624060	1.507339	0.800517	5006.955078
6062.625103	1.461031	0.800517	6530.811035
6062.626137	1.418064	0.800517	7997.089355
6062.627034	1.381608	0.800517	9236.391602
6062.627966	0.718788	0.800517	9906.301758
6062.629017	0.100474	0.800517	10011.899414
6062.629954	0.097896	0.800517	10103.627930
6062.630817	0.097899	0.800517	10188.115234
6062.631860	0.097932	0.800517	10290.258789
6062.632880	0.097863	0.800517	10390.078125
6062.633755	0.097991	0.800517	10475.820312
6062.634691	0.097877	0.800517	10567.433594
6062.635763	0.097936	0.800517	10672.420898
6062.636669	0.097826	0.800517	10761.050781
6062.637535	0.097830	0.800517	10845.771484
6063.621083	1.090063	0.830568	499.249054
6063.622202	1.570173	0.830568	2256.272949
6063.623141	1.545480	0.830568	3707.478516
6063.624011	1.506006	0.830568	5017.703613
6063.625041	1.460160	0.830568	6521.668457
6063.626074	1.417280	0.830568	7985.718750
6063.626967	1.381344	0.830568	9219.258789
6063.627924	0.694677	0.830568	9884.064453
6063.628964	0.099891	0.830568	9987.951172
6063.629896	0.097844	0.830568	10079.141602
6063.630764	0.097837	0.830568	10164.064453
6063.631825	0.098024	0.830568	10268.067383
6063.632833	0.097822	0.830568	10366.671875
6063.633725	0.097896	0.830568	10453.995117
6063.634685	0.097874	0.830568	10547.954102
6063.635736	0.097903	0.830568	10650.849609
6063.636646	0.097947	0.830568	10739.981445
6063.637506	0.097859	0.830568	10824.139648
6064.674240	1.065055	0.802579	455.843506
6064.675265	1.565632	0.802579	2060.616699
6064.676243	1.548673	0.802579	3575.218994
6064.677152	1.508046	0.802579	4946.032227
6064.678032	1.466924	0.802579	6236.925293
6064.679129	1.422957	0.802579	7797.908691
6064.680042	1.386064	0.802579	9063.385742
6064.680916	0.930758	0.802579	9876.868164
6064.681955	0.108625	0.802579	9989.730469
6064.682924	0.097782	0.802579	10084.481445
6064.683800	0.097896	0.802579	10170.238281
6064.684658	0.097928	0.802579	10254.260742
6064.685771	0.097874	0.802579	10363.194336
6064.686673	0.097903	0.802579	10451.502930
6064.687544	0.097961	0.802579	10536.827148
6064.688567	0.098016	0.802579	10637.097656
6064.689545	0.097965	0.802579	10732.907227
6064.690433	0.097896	0.802579	10819.838867
6065.674810	1.181605	0.861103	636.885193
6065.675852	1.571422	0.861103	2274.307129
6065.676726	1.547651	0.861103	3626.954590
6065.677665	1.505431	0.861103	5040.554199
6065.678730	1.458047	0.861103	6593.374023
6065.679678	1.418562	0.861103	7938.170898
6065.680554	1.382856	0.861103	9149.552734
6065.681605	0.616359	0.861103	9797.345703
6065.682611	0.099188	0.861103	9897.128906
6065.683505	0.097928	0.861103	9984.676758
6065.684463	0.097932	0.861103	10078.496094
6065.685520	0.097998	0.861103	10182.080078
6065.686446	0.097943	0.861103	10272.775391
6065.687306	0.097914	0.861103	10356.981445
6065.688391	0.097976	0.861103	10463.285156
6065.689376	0.097983	0.861103	10559.798828
6065.690266	0.098049	0.861103	10647.062500
6065.691253	0.098013	0.861103	10743.800781
6066.727350	1.080593	0.803828	452.768616
6066.728459	1.570126	0.803828	2194.038086
6066.729422	1.546509	0.803828	3683.326172
6066.730291	1.507277	0.803828	4993.149414
6066.731320	1.461456	0.803828	6496.987793
6066.732365	1.418203	0.803828	7979.009766
6066.733266	1.381560	0.803828	9223.794922
6066.734207	0.717598	0.803828	9899.054687
6066.735263	0.100221	0.803828	10004.887695
6066.736208	0.097936	0.803828	10097.437500
6066.737066	0.097888	0.803828	10181.425781
6066.738126	0.097866	0.803828	10285.164062
6066.739137	0.097870	0.803828	10384.110352
6066.740025	0.097896	0.803828	10471.041992
6066.740989	0.097914	0.803828	10565.430664
6066.742038	0.097983	0.803828	10668.214844
6066.742955	0.097936	0.803828	10758.021484
6066.743811	0.097914	0.803828	10841.835937
6067.728432	1.174530	0.880491	624.849976
6067.729382	1.570756	0.880491	2117.067871
6067.730252	1.551852	0.880491	3467.178711
6067.731187	1.510137	0.880491	4879.156250
6067.732246	1.463459	0.880491	6428.959961
6067.733144	1.425538	0.880491	7709.093262
6067.734018	1.389844	0.880491	8923.816406
6067.735044	0.850155	0.880491	9796.075195
6067.736000	0.106479	0.880491	9897.869141
6067.736876	0.097881	0.880491	9983.612305
6067.737764	0.097994	0.880491	10070.630859
6067.738854	0.097870	0.880491	10177.308594
6067.739735	0.097928	0.880491	10263.583984
6067.740592	0.097950	0.880491	10347.527344
6067.741644	0.098035	0.880491	10450.660156
6067.742611	0.097841	0.880491	10545.272461
6067.743483	0.097983	0.880491	10630.713867
6067.744341	0.097921	0.880491	10714.730469
6068.780993	1.064202	0.795336	455.478333
6068.782013	1.567214	0.795336	2054.036865
6068.782923	1.552064	0.795336	3466.415283
6068.783833	1.511426	0.795336	4841.812500
6068.784720	1.471714	0.795336	6147.222656
6068.785676	1.431497	0.795336	7515.733398
6068.786619	1.393257	0.795336	8829.574219
6068.787515	1.109813	0.795336	9823.966797
6068.788475	0.155376	0.795336	9973.127930
6068.789414	0.097811	0.795336	10064.972656
6068.790318	0.097947	0.795336	10153.516602
6068.791194	0.097874	0.795336	10239.253906
6068.792221	0.097771	0.795336	10339.665039
6068.793118	0.097833	0.795336	10427.421875
6068.793997	0.097896	0.795336	10513.471680
6068.794946	0.097917	0.795336	10606.395508
6068.795922	0.097980	0.795336	10702.023437
6068.796841	0.097877	0.795336	10791.972656
6069.781517	1.138865	0.899972	572.848999
6069.782478	1.570364	0.899972	2081.968750
6069.783349	1.552826	0.899972	3434.479980
6069.784380	1.507017	0.899972	4988.213867
6069.785416	1.461244	0.899972	6502.062500
6069.786314	1.423315	0.899972	7780.199707
6069.787237	1.385988	0.899972	9059.465820
6069.788307	0.675407	0.899972	9782.150391
6069.789250	0.101283	0.899972	9877.660156
6069.790114	0.097833	0.899972	9962.188477
6069.791159	0.097892	0.899972	10064.485352
6069.792174	0.097892	0.899972	10163.845703
6069.793055	0.097921	0.899972	10250.114258
6069.794005	0.097954	0.899972	10343.170898
6069.795069	0.098038	0.899972	10447.483398
6069.795975	0.097899	0.899972	10536.179687
6069.796842	0.097899	0.899972	10621.058594
6069.797881	0.098002	0.899972	10722.882812
6070.834248	1.196166	0.803474	666.264282
6070.835289	1.571759	0.803474	2302.465332
6070.836182	1.546252	0.803474	3683.268555
6070.837113	1.504603	0.803474	5084.054199
6070.838188	1.457216	0.803474	6650.561035
6070.839129	1.417731	0.803474	7984.645508
6070.840002	1.382058	0.803474	9191.182617
6070.841072	0.583129	0.803474	9815.129883
6070.842091	0.098855	0.803474	9915.863281
6070.842965	0.097917	0.803474	10001.443359
6070.843942	0.097925	0.803474	10097.116211
6070.844998	0.097910	0.803474	10200.509766
6070.845901	0.097906	0.803474	10288.918945
6070.846767	0.097939	0.803474	10373.734375
6070.847825	0.098071	0.803474	10477.494141
6070.848829	0.097943	0.803474	10575.829102
6070.849721	0.097906	0.803474	10663.162109
6070.850669	0.097987	0.803474	10756.053711
6071.834658	1.152993	0.912295	590.332458
6071.835621	1.570459	0.912295	2102.684570
6071.836491	1.551965	0.912295	3452.894531
6071.837537	1.505907	0.912295	5028.073242
6071.838579	1.459717	0.912295	6549.098145
6071.839462	1.422231	0.912295	7804.928711
6071.840403	1.384156	0.912295	9107.419922
6071.841470	0.626979	0.912295	9776.406250
6071.842408	0.100250	0.912295	9870.441406
6071.843272	0.097877	0.912295	9955.006836
6071.844324	0.097936	0.912295	10058.035156
6071.845333	0.097800	0.912295	10156.715820
6071.846219	0.097874	0.912295	10243.431641
6071.847173	0.097958	0.912295	10336.883789
6071.848218	0.097793	0.912295	10439.077148
6071.849147	0.097800	0.912295	10529.933594
6071.850007	0.097950	0.912295	10614.170898
6071.851069	0.097972	0.912295	10718.217773
6072.887262	1.093890	0.821404	502.095642
6072.888353	1.570660	0.821404	2215.686279
6072.889255	1.547908	0.821404	3611.898926
6072.890127	1.508888	0.821404	4927.649414
6072.891142	1.463317	0.821404	6412.916016
6072.892116	1.422982	0.821404	7798.900391
6072.892995	1.387079	0.821404	9018.142578
6072.893882	0.905424	0.821404	9821.252930
6072.894997	0.104769	0.821404	9938.070312
6072.895886	0.097753	0.821404	10024.972656
6072.896747	0.097877	0.821404	10109.245117
6072.897831	0.098020	0.821404	10215.499023
6072.898800	0.097793	0.821404	10310.260742
6072.899676	0.097998	0.821404	10396.107422
6072.900552	0.098046	0.821404	10481.995117
6072.901634	0.097833	0.821404	10587.850586
6072.902523	0.097819	0.821404	10674.811523
6072.903379	0.097980	0.821404	10758.682617
6073.889241	1.091217	0.894932	482.317932
6073.890118	1.563538	0.894932	1853.540283
6073.890983	1.558282	0.894932	3201.454590
6073.891945	1.515590	0.894932	4659.451660
6073.892875	1.473897	0.894932	6030.175293
6073.893765	1.436444	0.894932	7308.610352
6073.894763	1.396512	0.894932	8702.330078
6073.895701	1.119481	0.894932	9752.403320
6073.896632	0.151641	0.894932	9893.581055
6073.897497	0.097771	0.894932	9978.153320
6073.898540	0.097822	0.894932	10080.181641
6073.899429	0.097874	0.894932	10167.191406
6073.900350	0.097896	0.894932	10257.353516
6073.901215	0.097863	0.894932	10342.004883
6073.902205	0.097899	0.894932	10438.924805
6073.903126	0.097888	0.894932	10529.080078
6073.903986	0.097877	0.894932	10613.254883
6073.905002	0.097863	0.894932	10712.683594
6074.940956	1.144695	0.833162	587.228455
6074.941928	1.570627	0.833162	2113.878418
6074.942793	1.552028	0.833162	3456.382324
6074.943827	1.505709	0.833162	5013.285645
6074.944880	1.459226	0.833162	6549.850586
6074.945775	1.421689	0.833162	7822.262695
6074.946712	1.383926	0.833162	9119.000977
6074.947775	0.618929	0.833162	9776.922852
6074.948717	0.100148	0.833162	9871.261719
6074.949583	0.097844	0.833162	9955.995117
6074.950624	0.097961	0.833162	10057.972656
6074.951640	0.097837	0.833162	10157.375000
6074.952532	0.097910	0.833162	10244.710937
6074.953496	0.098016	0.833162	10339.198242
6074.954540	0.098005	0.833162	10441.515625
6074.955474	0.097928	0.833162	10532.980469
6074.956340	0.098046	0.833162	10617.887695
6074.957406	0.098071	0.833162	10722.431641
6075.940403	1.182759	0.871524	625.679382
6075.941444	1.571283	0.871524	2261.384766
6075.942338	1.546908	0.871524	3644.320557
6075.943273	1.504845	0.871524	5051.350586
6075.944352	1.457205	0.871524	6623.674316
6075.945289	1.418082	0.871524	7952.417480
6075.946166	1.382479	0.871524	9164.851562
6075.947213	0.609862	0.871524	9803.376953
6075.948228	0.099239	0.871524	9904.105469
6075.949118	0.097910	0.871524	9991.245117
6075.950062	0.098060	0.871524	10083.814453
6075.951112	0.097994	0.871524	10186.708984
6075.952048	0.097987	0.871524	10278.424805
6075.952910	0.097972	0.871524	10362.876953
6075.953978	0.098038	0.871524	10467.582031
6075.954967	0.097903	0.871524	10564.408203
6075.955847	0.097961	0.871524	10650.614258
6075.956828	0.098075	0.871524	10746.826172
6076.996537	1.067900	0.838093	450.653931
6076.997617	1.568500	0.838093	2144.633545
6076.998552	1.548805	0.838093	3592.766113
6076.999422	1.509606	0.838093	4906.123047
6077.000385	1.466693	0.838093	6318.548828
6077.001416	1.422997	0.838093	7785.658691
6077.002321	1.386427	0.838093	9040.375000
6077.003196	0.939210	0.838093	9862.183594
6077.004257	0.107183	0.838093	9975.904297
6077.005194	0.097983	0.838093	10067.714844
6077.006077	0.098020	0.838093	10154.266602
6077.007012	0.098027	0.838093	10245.921875
6077.008035	0.098049	0.838093	10346.226562
6077.008916	0.097980	0.838093	10432.546875
6077.009775	0.098038	0.838093	10516.761719
6077.010821	0.098024	0.838093	10619.294922
6077.011767	0.097833	0.838093	10711.844727
6077.012636	0.098005	0.838093	10797.011719
6077.992408	1.100929	0.836361	487.711548
6077.993290	1.564303	0.836361	1867.426880
6077.994153	1.556774	0.836361	3210.922607
6077.995161	1.514542	0.836361	4737.581055
6077.996088	1.472970	0.836361	6103.024414
6077.996949	1.435345	0.836361	7338.856934
6077.997971	1.394099	0.836361	8763.625977
6077.998875	1.128003	0.836361	9783.340820
6077.999787	0.155845	0.836361	9925.471680
6078.000666	0.097947	0.836361	10011.566406
6078.001641	0.097961	0.836361	10107.079102
6078.002563	0.098005	0.836361	10197.440430
6078.003456	0.097958	0.836361	10284.916992
6078.004476	0.098038	0.836361	10384.916016
6078.005370	0.097848	0.836361	10472.391602
6078.006278	0.097939	0.836361	10561.320312
6078.007145	0.097980	0.836361	10646.268555
6078.008075	0.097954	0.836361	10737.366211
6079.051240	1.109202	0.843954	516.888000
6079.052117	1.564977	0.843954	1889.372559
6079.053097	1.553903	0.843954	3412.197266
6079.054150	1.506859	0.843954	4998.919922
6079.055075	1.465181	0.843954	6354.211914
6079.055939	1.428018	0.843954	7588.019043
6079.056994	1.385621	0.843954	9049.849609
6079.057997	0.753409	0.843954	9805.519531
6079.058882	0.105981	0.843954	9899.313477
6079.059854	0.097961	0.843954	9994.532227
6079.060895	0.097954	0.843954	10096.502930
6079.061809	0.098013	0.843954	10186.086914
6079.062668	0.097991	0.843954	10270.260742
6079.063737	0.098082	0.843954	10375.110352
6079.064727	0.097969	0.843954	10472.099609
6079.065625	0.098005	0.843954	10560.108398
6079.066603	0.098199	0.843954	10656.147461
6079.067651	0.098009	0.843954	10758.861328
6080.044045	1.132295	0.833428	567.279724
6080.044965	1.569100	0.833428	2010.852051
6080.045830	1.553881	0.833428	3354.958740
6080.046906	1.507083	0.833428	4976.579590
6080.047911	1.462299	0.833428	6446.189453
6080.048795	1.425099	0.833428	7705.976562
6080.049787	1.385577	0.833428	9080.468750
6080.050837	0.681592	0.833428	9796.140625
6080.051735	0.102502	0.833428	9888.187500
6080.052592	0.097906	0.833428	9972.093750
6080.053673	0.098170	0.833428	10078.215820
6080.054657	0.097892	0.833428	10174.541016
6080.055529	0.098016	0.833428	10260.011719
6080.056506	0.097917	0.833428	10355.676758
6080.057557	0.098002	0.833428	10458.676758
6080.058455	0.097965	0.833428	10546.649414
6080.059316	0.097976	0.833428	10631.006836
6080.060407	0.098053	0.833428	10737.982422
6081.104359	1.112413	0.830729	520.609436
6081.105245	1.566138	0.830729	1908.207520
6081.106207	1.553730	0.830729	3402.895996
6081.107261	1.506694	0.830729	4990.951660
6081.108195	1.465027	0.830729	6359.286621
6081.109062	1.427714	0.830729	7597.114258
6081.110152	1.384427	0.830729	9106.140625
6081.111158	0.698093	0.830729	9808.422852
6081.112047	0.103436	0.830729	9900.377930
6081.113031	0.098112	0.830729	9996.919922
6081.114064	0.098031	0.830729	10098.185547
6081.114966	0.097994	0.830729	10186.576172
6081.115828	0.098031	0.830729	10271.079102
6081.116908	0.098024	0.830729	10376.944336
6081.117899	0.098038	0.830729	10474.100586
6081.118777	0.097958	0.830729	10560.107422
6081.119773	0.098177	0.830729	10657.892578
6081.120821	0.098170	0.830729	10760.775391
6082.096567	1.071420	0.856845	451.067688
6082.097627	1.569888	0.856845	2115.148682
6082.098523	1.550925	0.856845	3504.777832
6082.099407	1.511642	0.856845	4841.069336
6082.100383	1.468630	0.856845	6274.452637
6082.101337	1.427589	0.856845	7636.372559
6082.102268	1.390228	0.856845	8930.674805
6082.103140	1.045521	0.856845	9842.369141
6082.104191	0.118081	0.856845	9966.472656
6082.105071	0.097826	0.856845	10052.559570
6082.105941	0.098002	0.856845	10137.821289
6082.106858	0.097961	0.856845	10227.652344
6082.107840	0.097936	0.856845	10323.825195
6082.108746	0.098005	0.856845	10412.618164
6082.109630	0.097958	0.856845	10499.212891
6082.110612	0.098108	0.856845	10595.554687
6082.111527	0.098038	0.856845	10685.259766
6082.112451	0.098060	0.856845	10775.867187
6083.157954	1.069959	0.795667	459.012238
6083.158822	1.562040	0.795667	1814.862671
6083.159893	1.550903	0.795667	3475.880127
6083.160905	1.505819	0.795667	4999.769043
6083.161802	1.465957	0.795667	6314.732422
6083.162785	1.425059	0.795667	7715.564941
6083.163853	1.381952	0.795667	9191.489258
6083.164771	0.729990	0.795667	9861.620117
6083.165633	0.105802	0.795667	9952.821289
6083.166733	0.097958	0.795667	10060.575195
6083.167693	0.097994	0.795667	10154.649414
6083.168575	0.097994	0.795667	10241.080078
6083.169587	0.098086	0.795667	10340.342773
6083.170635	0.098031	0.795667	10443.079102
6083.171513	0.098049	0.795667	10529.166016
6083.172381	0.097976	0.795667	10614.208984
6083.173476	0.098027	0.795667	10721.548828
6083.174431	0.097943	0.795667	10815.084961
6084.149802	1.158420	0.881007	604.695496
6084.150823	1.571177	0.881007	2208.866943
6084.151699	1.548856	0.881007	3565.665039
6084.152684	1.504794	0.881007	5047.886719
6084.153755	1.457908	0.881007	6609.305664
6084.154652	1.419606	0.881007	7882.691895
6084.155527	1.383314	0.881007	9093.091797
6084.156615	0.612327	0.881007	9759.302734
6084.157603	0.099265	0.881007	9857.376953
6084.158503	0.097961	0.881007	9945.541992
6084.159495	0.098082	0.881007	10042.839844
6084.160551	0.097925	0.881007	10146.248047
6084.161442	0.098042	0.881007	10233.603516
6084.162326	0.097983	0.881007	10320.220703
6084.163418	0.098115	0.881007	10427.362305
6084.164370	0.098075	0.881007	10520.729492
6084.165239	0.098031	0.881007	10605.917969
6084.166262	0.098115	0.881007	10706.290039
6085.211076	1.068036	0.775239	462.459564
6085.211939	1.562000	0.775239	1810.465210
6085.212990	1.552328	0.775239	3441.961914
6085.213995	1.507547	0.775239	4957.046875
6085.214881	1.467832	0.775239	6257.545898
6085.215870	1.427212	0.775239	7669.058594
6085.216913	1.384559	0.775239	9113.154297
6085.217834	0.810787	0.775239	9859.889648
6085.218694	0.110468	0.775239	9954.891602
6085.219774	0.098075	0.775239	10060.812500
6085.220771	0.097961	0.775239	10158.480469
6085.221640	0.098071	0.775239	10243.704102
6085.222626	0.098152	0.775239	10340.481445
6085.223676	0.098097	0.775239	10443.483398
6085.224569	0.098123	0.775239	10531.106445
6085.225436	0.098093	0.775239	10616.153320
6085.226530	0.098137	0.775239	10723.515625
6085.227504	0.097983	0.775239	10818.951172
6086.201795	1.072950	0.903731	462.441650
6086.202661	1.561655	0.903731	1814.835083
6086.203708	1.552599	0.903731	3440.406250
6086.204605	1.512499	0.903731	4797.117676
6086.205484	1.472530	0.903731	6091.471680
6086.206372	1.433939	0.903731	7364.809570
6086.207405	1.392799	0.903731	8803.571289
6086.208302	1.112926	0.903731	9801.866211
6086.209180	0.158771	0.903731	9941.266602
6086.210196	0.097903	0.903731	10040.736328
6086.211087	0.097874	0.903731	10127.941406
6086.211997	0.097987	0.903731	10217.109375
6086.212873	0.098013	0.903731	10302.968750
6086.213918	0.097914	0.903731	10405.289062
6086.214811	0.097998	0.903731	10492.801758
6086.215688	0.097998	0.903731	10578.746094
6086.216665	0.097928	0.903731	10674.421875
6086.217617	0.098035	0.903731	10767.750977
6087.263257	1.147661	0.763396	583.011841
6087.264188	1.569683	0.763396	2044.386353
6087.265051	1.553518	0.763396	3385.072266
6087.266097	1.507566	0.763396	4961.986328
6087.267114	1.462482	0.763396	6449.330078
6087.267990	1.425187	0.763396	7697.793945
6087.268956	1.386570	0.763396	9037.220703
6087.270024	0.685924	0.763396	9769.787109
6087.270941	0.102056	0.763396	9863.372070
6087.271810	0.097976	0.763396	9948.513672
6087.272889	0.098049	0.763396	10054.308594
6087.273883	0.097928	0.763396	10151.649414
6087.274770	0.097939	0.763396	10238.521484
6087.275739	0.098112	0.763396	10333.591797
6087.276787	0.098020	0.763396	10436.316406
6087.277696	0.098016	0.763396	10525.413086
6087.278565	0.097983	0.763396	10610.560547
6087.279654	0.098046	0.763396	10717.332031
6088.255533	1.124334	0.888068	607.140076
6088.256598	1.570397	0.888068	2279.612549
6088.257514	1.544846	0.888068	3694.691650
6088.258378	1.504680	0.888068	4994.735352
6088.259434	1.458387	0.888068	6534.792480
6088.260437	1.416698	0.888068	7955.740723
6088.261332	1.380912	0.888068	9191.657227
6088.262309	0.666779	0.888068	9843.099609
6088.263356	0.099723	0.888068	9947.509766
6088.264262	0.098075	0.888068	10036.365234
6088.265128	0.098016	0.888068	10121.247070
6088.266233	0.098064	0.888068	10229.607422
6088.267183	0.097921	0.888068	10322.632812
6088.268065	0.097965	0.888068	10409.038086
6088.269065	0.098057	0.888068	10507.094727
6088.270107	0.098134	0.888068	10609.349609
6088.271004	0.098031	0.888068	10697.283203
6088.271872	0.098123	0.888068	10782.453125
6089.316860	1.132196	0.748419	540.057495
6089.317746	1.566471	0.748419	1927.950806
6089.318608	1.556323	0.748419	3269.501465
6089.319672	1.510422	0.748419	4876.590820
6089.320600	1.468297	0.748419	6239.170410
6089.321477	1.431310	0.748419	7494.429199
6089.322419	1.393008	0.748419	8806.642578
6089.323473	0.926865	0.748419	9783.558594
6089.324366	0.117971	0.748419	9888.907227
6089.325229	0.097972	0.748419	9973.457031
6089.326269	0.098097	0.748419	10075.477539
6089.327230	0.098035	0.748419	10169.688477
6089.328097	0.098075	0.748419	10254.719727
6089.329126	0.097980	0.748419	10355.541016
6089.330131	0.098005	0.748419	10454.036133
6089.331015	0.098046	0.748419	10540.708008
6089.331878	0.098071	0.748419	10625.343750
6089.332926	0.098167	0.748419	10728.222656
6090.308029	1.062982	0.894530	452.830414
6090.309072	1.567346	0.894530	2087.572510
6090.310105	1.546066	0.894530	3684.658203
6090.310981	1.505834	0.894530	5003.768555
6090.311942	1.463489	0.894530	6410.181152
6090.313012	1.418481	0.894530	7927.956055
6090.313932	1.380908	0.894530	9198.391602
6090.314846	0.731887	0.894530	9867.336914
6090.315729	0.104971	0.894530	9960.026367
6090.316681	0.098060	0.894530	10053.379883
6090.317603	0.098057	0.894530	10143.788086
6090.318479	0.098071	0.894530	10229.698242
6090.319344	0.098079	0.894530	10314.536133
6090.320369	0.097892	0.894530	10414.875000
6090.321294	0.097980	0.894530	10505.505859
6090.322207	0.098123	0.894530	10595.091797
6090.323068	0.098126	0.894530	10679.578125
6090.324011	0.097947	0.894530	10771.942383
6091.368982	1.140905	0.757676	571.593201
6091.369996	1.571019	0.757676	2164.606689
6091.370888	1.549618	0.757676	3546.865723
6091.371847	1.506899	0.757676	4991.982422
6091.372909	1.459493	0.757676	6541.964355
6091.373832	1.420862	0.757676	7853.419922
6091.374709	1.384530	0.757676	9067.652344
6091.375790	0.646816	0.757676	9766.861328
6091.376781	0.099749	0.757676	9865.711914
6091.377670	0.097983	0.757676	9952.819336
6091.378655	0.098167	0.757676	10049.513672
6091.379707	0.098079	0.757676	10152.692383
6091.380613	0.098046	0.757676	10241.521484
6091.381476	0.097980	0.757676	10326.078125
6091.382551	0.097958	0.757676	10431.382812
6091.383528	0.097961	0.757676	10527.090820
6091.384412	0.097914	0.757676	10613.646484
6091.385405	0.098075	0.757676	10711.035156
6092.361145	1.062019	0.882062	447.110046
6092.362185	1.567174	0.882062	2076.971191
6092.363216	1.545831	0.882062	3670.723145
6092.364108	1.505643	0.882062	5013.756836
6092.365044	1.464023	0.882062	6384.083008
6092.366113	1.419111	0.882062	7901.112793
6092.367057	1.381278	0.882062	9205.039062
6092.367930	0.775177	0.882062	9881.768555
6092.368997	0.101719	0.882062	9990.302734
6092.369999	0.098038	0.882062	10088.537109
6092.370890	0.098046	0.882062	10175.895508
6092.371870	0.098086	0.882062	10272.019531
6092.372912	0.098049	0.882062	10374.186523
6092.373812	0.098071	0.882062	10462.450195
6092.374669	0.098082	0.882062	10546.506836
6092.375742	0.098108	0.882062	10651.776367
6092.376736	0.097899	0.882062	10749.087891
6092.377612	0.098075	0.882062	10835.001953
6093.422624	1.152642	0.730779	594.763062
6093.423556	1.570236	0.730779	2058.222656
6093.424431	1.552852	0.730779	3416.967773
6093.425389	1.510690	0.730779	4864.208496
6093.426426	1.463979	0.730779	6382.355469
6093.427320	1.426417	0.730779	7657.572266
6093.428188	1.390616	0.730779	8864.626953
6093.429256	0.845189	0.730779	9767.289062
6093.430199	0.107347	0.730779	9868.517578
6093.431077	0.098005	0.730779	9954.566406
6093.432027	0.098079	0.730779	10047.741211
6093.433055	0.098060	0.730779	10148.546875
6093.433940	0.098009	0.730779	10235.285156
6093.434800	0.097954	0.730779	10319.525391
6093.435849	0.098046	0.730779	10422.375000
6093.436801	0.097965	0.730779	10515.637695
6093.437665	0.098053	0.730779	10600.355469
6093.438570	0.098185	0.730779	10689.212891
6094.414853	1.111963	0.879021	555.981445
6094.415912	1.570137	0.879021	2218.756348
6094.416843	1.545831	0.879021	3657.925293
6094.417713	1.505782	0.879021	4967.956055
6094.418800	1.458688	0.879021	6553.549805
6094.419807	1.416288	0.879021	7979.751953
6094.420702	1.380831	0.879021	9215.595703
6094.421672	0.649479	0.879021	9845.589844
6094.422718	0.099672	0.879021	9949.846680
6094.423627	0.098027	0.879021	10038.953125
6094.424486	0.098104	0.879021	10123.224609
6094.425559	0.098115	0.879021	10228.501953
6094.426542	0.097983	0.879021	10324.819336
6094.427430	0.098068	0.879021	10411.903320
6094.428415	0.098181	0.879021	10508.611328
6094.429458	0.098009	0.879021	10610.834961
6094.430346	0.098086	0.879021	10697.935547
6094.431206	0.097969	0.879021	10782.188477
6095.475231	1.149924	0.733582	581.861755
6095.476282	1.571151	0.733582	2233.141602
6095.477156	1.548061	0.733582	3586.147461
6095.478130	1.504768	0.733582	5051.791504
6095.479196	1.457314	0.733582	6605.288574
6095.480123	1.418697	0.733582	7920.420898
6095.480995	1.382454	0.733582	9125.920898
6095.482088	0.582491	0.733582	9762.583984
6095.483083	0.098983	0.733582	9861.072266
6095.483972	0.098064	0.733582	9948.250977
6095.484957	0.098174	0.733582	10044.952148
6095.486010	0.098064	0.733582	10148.213867
6095.486910	0.098068	0.733582	10236.474609
6095.487774	0.098013	0.733582	10321.157227
6095.488872	0.098101	0.733582	10428.872070
6095.489847	0.097939	0.733582	10524.363281
6095.490714	0.098145	0.733582	10609.455078
6095.491788	0.098075	0.733582	10714.787109
6096.466876	1.059445	0.885124	448.145050
6096.467768	1.560868	0.885124	1840.439209
6096.468874	1.549091	0.885124	3553.733398
6096.469828	1.506625	0.885124	4991.053711
6096.470689	1.467371	0.885124	6254.459961
6096.471699	1.424872	0.885124	7693.580566
6096.472753	1.382673	0.885124	9150.917969
6096.473650	0.797919	0.885124	9866.651367
6096.474589	0.109069	0.885124	9969.066406
6096.475650	0.098075	0.885124	10073.124023
6096.476579	0.098042	0.885124	10164.205078
6096.477443	0.098097	0.885124	10248.960937
6096.478511	0.098123	0.885124	10353.755859
6096.479533	0.098170	0.885124	10454.085937
6096.480428	0.098123	0.885124	10541.905273
6096.481385	0.098082	0.885124	10635.769531
6096.482436	0.098192	0.885124	10738.969727
6096.483360	0.098097	0.885124	10829.611328
6097.527233	1.067494	0.729614	453.684906
6097.528144	1.561622	0.729614	1876.322876
6097.529219	1.550284	0.729614	3542.878418
6097.530099	1.510375	0.729614	4872.008301
6097.530962	1.471256	0.729614	6141.702148
6097.532018	1.427358	0.729614	7648.992676
6097.532989	1.387793	0.729614	8996.540039
6097.533861	0.990553	0.729614	9860.302734
6097.534728	0.130459	0.729614	9973.411133
6097.535826	0.098042	0.729614	10081.061523
6097.536729	0.098071	0.729614	10169.620117
6097.537591	0.098016	0.729614	10254.110352
6097.538644	0.098137	0.729614	10357.449219
6097.539620	0.097987	0.729614	10453.084961
6097.540500	0.098086	0.729614	10539.400391
6097.541360	0.098130	0.729614	10623.791992
6097.542472	0.098159	0.729614	10732.945312
6097.543379	0.098002	0.729614	10821.833008
6098.520001	1.066326	0.859270	457.453705
6098.520872	1.562468	0.859270	1818.363647
6098.521768	1.556770	0.859270	3213.229492
6098.522813	1.512393	0.859270	4793.679687
6098.523707	1.471919	0.859270	6109.575195
6098.524583	1.434906	0.859270	7366.552734
6098.525582	1.394989	0.859270	8760.146484
6098.526491	1.122440	0.859270	9780.444336
6098.527418	0.154321	0.859270	9923.500000
6098.528287	0.098009	0.859270	10008.669922
6098.529308	0.098016	0.859270	10108.744141
6098.530204	0.098005	0.859270	10196.556641
6098.531080	0.098126	0.859270	10282.515625
6098.532031	0.098221	0.859270	10375.923828
6098.533002	0.097987	0.859270	10471.069336
6098.533930	0.098009	0.859270	10562.021484
6098.534795	0.098027	0.859270	10646.815430
6098.535829	0.098130	0.859270	10748.281250
6099.580347	1.061063	0.731717	452.012970
6099.581370	1.566108	0.731717	2054.141846
6099.582415	1.546787	0.731717	3670.534424
6099.583286	1.506544	0.731717	4982.734375
6099.584199	1.465283	0.731717	6320.538086
6099.585276	1.420459	0.731717	7850.372559
6099.586235	1.382278	0.731717	9175.976562
6099.587108	0.809601	0.731717	9882.757812
6099.588130	0.103422	0.731717	9988.455078
6099.589150	0.098086	0.731717	10088.502930
6099.590045	0.098112	0.731717	10176.312500
6099.590989	0.098005	0.731717	10268.829102
6099.592033	0.098035	0.731717	10371.177734
6099.592975	0.097998	0.731717	10463.492187
6099.593837	0.097980	0.731717	10547.951172
6099.594896	0.098086	0.731717	10651.824219
6099.595898	0.097983	0.731717	10750.003906
6099.596788	0.098064	0.731717	10837.281250
6100.574224	1.109528	0.828586	563.640015
6100.575290	1.570221	0.828586	2237.495605
6100.576215	1.545674	0.828586	3667.243896
6100.577079	1.506145	0.828586	4968.553223
6100.578145	1.459640	0.828586	6524.529297
6100.579162	1.417266	0.828586	7965.888184
6100.580041	1.381655	0.828586	9180.363281
6100.581019	0.683035	0.828586	9848.371094
6100.582069	0.100052	0.828586	9953.425781
6100.582976	0.098049	0.828586	10042.356445
6100.583833	0.097936	0.828586	10126.287109
6100.584890	0.098196	0.828586	10230.080078
6100.585900	0.097932	0.828586	10328.991211
6100.586789	0.098075	0.828586	10416.179687
6100.587769	0.098097	0.828586	10512.314453
6100.588818	0.098123	0.828586	10615.245117
6100.589719	0.098042	0.828586	10703.581055
6100.590580	0.098038	0.828586	10787.992187
6101.632476	1.111750	0.741067	495.840729
6101.633360	1.565215	0.741067	1879.490601
6101.634360	1.552723	0.741067	3432.213867
6101.635411	1.506299	0.741067	5015.333984
6101.636314	1.465210	0.741067	6338.418457
6101.637180	1.427274	0.741067	7574.437988
6101.638291	1.384175	0.741067	9112.255859
6101.639257	0.756976	0.741067	9843.495117
6101.640120	0.106989	0.741067	9935.826172
6101.641156	0.098090	0.741067	10037.447266
6101.642193	0.098145	0.741067	10139.222656
6101.643074	0.098104	0.741067	10225.652344
6101.643987	0.098137	0.741067	10315.251953
6101.645057	0.098240	0.741067	10420.368164
6101.645999	0.098027	0.741067	10512.709961
6101.646865	0.098126	0.741067	10597.687500
6101.647891	0.098218	0.741067	10698.458984
6101.648919	0.097947	0.741067	10799.148437
6102.627336	1.108612	0.792939	555.414673
6102.628395	1.570272	0.792939	2218.333008
6102.629336	1.545399	0.792939	3672.553711
6102.630211	1.505405	0.792939	4989.783203
6102.631268	1.458746	0.792939	6531.678223
6102.632291	1.416218	0.792939	7980.469727
6102.633186	1.380652	0.792939	9216.153320
6102.634171	0.637489	0.792939	9844.080078
6102.635225	0.099375	0.792939	9948.821289
6102.636134	0.097947	0.792939	10037.854492
6102.636995	0.098068	0.792939	10122.291016
6102.638060	0.098082	0.792939	10226.749023
6102.639049	0.098027	0.792939	10323.698242
6102.639950	0.098057	0.792939	10412.046875
6102.640944	0.098060	0.792939	10509.518555
6102.641976	0.098090	0.792939	10610.747070
6102.642867	0.097994	0.792939	10698.060547
6102.643725	0.098130	0.792939	10782.255859
6103.684705	1.213711	0.752507	719.730591
6103.685680	1.571774	0.752507	2252.209961
6103.686604	1.546209	0.752507	3680.906738
6103.687468	1.504827	0.752507	4981.077148
6103.688593	1.458450	0.752507	6621.833008
6103.689466	1.420866	0.752507	7862.248535
6103.690338	1.385519	0.752507	9070.420898
6103.691373	0.710837	0.752507	9806.137695
6103.692344	0.101188	0.752507	9904.390625
6103.693215	0.098053	0.752507	9989.794922
6103.694076	0.098049	0.752507	10074.215820
6103.695184	0.098031	0.752507	10182.833984
6103.696088	0.097954	0.752507	10271.384766
6103.696963	0.098075	0.752507	10357.200195
6103.697974	0.098005	0.752507	10456.283203
6103.698962	0.098038	0.752507	10553.145508
6103.699846	0.098112	0.752507	10639.875977
6103.700704	0.097998	0.752507	10723.958008
6104.681988	1.141791	0.762824	550.343140
6104.682879	1.567009	0.762824	1946.548340
6104.683757	1.555474	0.762824	3312.254150
6104.684712	1.513740	0.762824	4757.875977
6104.685678	1.470004	0.762824	6177.899414
6104.686601	1.431321	0.762824	7499.008789
6104.687480	1.395190	0.762824	8725.380859
6104.688507	1.049436	0.762824	9803.151367
6104.689405	0.137552	0.762824	9926.673828
6104.690277	0.097848	0.762824	10011.997070
6104.691165	0.097998	0.762824	10099.019531
6104.692198	0.097892	0.762824	10200.141602
6104.693072	0.097969	0.762824	10285.766602
6104.693945	0.097954	0.762824	10371.280273
6104.694938	0.098053	0.762824	10468.646484
6104.695865	0.098042	0.762824	10559.531250
6104.696781	0.098053	0.762824	10649.347656
6104.697647	0.098024	0.762824	10734.236328
6105.735625	1.074298	0.767847	469.468231
6105.736501	1.563171	0.767847	1838.806396
6105.737376	1.558546	0.767847	3202.534180
6105.738309	1.518662	0.767847	4619.445801
6105.739248	1.474728	0.767847	6004.215332
6105.740175	1.436235	0.767847	7335.605469
6105.741039	1.399112	0.767847	8544.438477
6105.742063	1.157798	0.767847	9730.023437
6105.742965	0.171039	0.767847	9884.300781
6105.743885	0.097906	0.767847	9974.375000
6105.744747	0.097888	0.767847	10058.754883
6105.745746	0.098002	0.767847	10156.658203
6105.746674	0.098075	0.767847	10247.671875
6105.747534	0.098093	0.767847	10332.032227
6105.748557	0.097983	0.767847	10432.269531
6105.749438	0.098064	0.767847	10518.664062
6105.750354	0.098057	0.767847	10608.484375
6105.751217	0.097991	0.767847	10693.050781
6106.735556	1.071357	0.757986	460.683655
6106.736426	1.562358	0.757986	1819.935547
6106.737471	1.551431	0.757986	3441.180664
6106.738499	1.506039	0.757986	4989.388672
6106.739389	1.466191	0.757986	6294.298828
6106.740348	1.426282	0.757986	7662.103027
6106.741404	1.383347	0.757986	9122.917969
6106.742334	0.782659	0.757986	9850.791016
6106.743194	0.108380	0.757986	9943.998047
6106.744269	0.098031	0.757986	10049.381836
6106.745248	0.098013	0.757986	10145.335937
6106.746139	0.097976	0.757986	10232.632812
6106.747102	0.098115	0.757986	10327.118164
6106.748132	0.098035	0.757986	10428.093750
6106.749045	0.098049	0.757986	10517.612305
6106.749906	0.098064	0.757986	10602.044922
6106.750975	0.098090	0.757986	10706.902344
6106.751964	0.097965	0.757986	10803.790039
6107.787801	1.147427	0.729332	581.745422
6107.788745	1.569910	0.729332	2063.739990
6107.789609	1.552727	0.729332	3405.296143
6107.790672	1.506328	0.729332	5006.522949
6107.791701	1.460427	0.729332	6509.302734
6107.792577	1.423107	0.729332	7755.944336
6107.793538	1.384845	0.729332	9086.780273
6107.794600	0.647736	0.729332	9774.675781
6107.795521	0.101071	0.729332	9867.761719
6107.796389	0.098053	0.729332	9952.872070
6107.797453	0.098210	0.729332	10057.368164
6107.798456	0.097994	0.729332	10155.656250
6107.799350	0.097987	0.729332	10243.256836
6107.800314	0.098013	0.729332	10337.741211
6107.801371	0.098027	0.729332	10441.356445
6107.802282	0.097943	0.729332	10530.583008
6107.803144	0.098016	0.729332	10615.073242
6107.804247	0.098152	0.729332	10723.334961
6108.789183	1.062045	0.758191	450.306915
6108.790148	1.562164	0.758191	1957.795410
6108.791228	1.547230	0.758191	3628.804199
6108.792137	1.505892	0.758191	4997.660156
6108.793008	1.465741	0.758191	6274.320312
6108.794081	1.421422	0.758191	7799.506348
6108.795089	1.380985	0.758191	9191.539062
6108.795986	0.757625	0.758191	9871.127930
6108.796976	0.105425	0.758191	9975.498047
6108.798024	0.098090	0.758191	10078.295898
6108.798927	0.098013	0.758191	10166.801758
6108.799789	0.097991	0.758191	10251.269531
6108.800898	0.098123	0.758191	10360.087891
6108.801865	0.098042	0.758191	10454.894531
6108.802732	0.098046	0.758191	10539.900391
6108.803782	0.098108	0.758191	10642.914062
6108.804824	0.098009	0.758191	10745.039062
6108.805717	0.098108	0.758191	10832.649414
6109.838786	1.076045	0.725727	463.775360
6109.839649	1.561699	0.725727	1811.521851
6109.840737	1.550134	0.725727	3498.067871
6109.841708	1.506962	0.725727	4961.327637
6109.842597	1.467283	0.725727	6265.742187
6109.843610	1.425154	0.725727	7709.422852
6109.844662	1.383091	0.725727	9164.434570
6109.845562	0.786515	0.725727	9872.297852
6109.846453	0.108721	0.725727	9969.167969
6109.847535	0.098119	0.725727	10075.333008
6109.848478	0.098046	0.725727	10167.790039
6109.849335	0.098016	0.725727	10251.790039
6109.850372	0.098192	0.725727	10353.615234
6109.851406	0.098075	0.725727	10455.024414
6109.852288	0.098093	0.725727	10541.542969
6109.853216	0.098042	0.725727	10632.526367
6109.854291	0.098046	0.725727	10737.925781
6109.855227	0.098005	0.725727	10829.659180
6110.841808	1.080736	0.766880	473.362396
6110.842676	1.562681	0.766880	1829.769165
6110.843742	1.550790	0.766880	3482.911133
6110.844771	1.504922	0.766880	5031.475586
6110.845650	1.465503	0.766880	6319.652344
6110.846611	1.425417	0.766880	7689.478516
6110.847682	1.382406	0.766880	9170.035156
6110.848594	0.751780	0.766880	9855.658203
6110.849462	0.106545	0.766880	9948.139648
6110.850532	0.098016	0.766880	10053.017578
6110.851526	0.097991	0.766880	10150.419922
6110.852411	0.098075	0.766880	10237.215820
6110.853379	0.098020	0.766880	10332.099609
6110.854429	0.098090	0.766880	10435.093750
6110.855339	0.098126	0.766880	10524.388672
6110.856202	0.097994	0.766880	10608.958008
6110.857301	0.098101	0.766880	10716.770508
6110.858256	0.098024	0.766880	10810.382812
6111.890509	1.205240	0.704204	688.192322
6111.891500	1.571920	0.704204	2245.965088
6111.892398	1.547021	0.704204	3635.190430
6111.893269	1.506691	0.704204	4947.518066
6111.894359	1.459933	0.704204	6538.844727
6111.895266	1.421470	0.704204	7828.117676
6111.896151	1.386013	0.704204	9054.739258
6111.897153	0.771995	0.704204	9828.278320
6111.898147	0.101920	0.704204	9929.586914
6111.899030	0.097958	0.704204	10016.083984
6111.899896	0.097980	0.704204	10100.934570
6111.900982	0.097965	0.704204	10207.324219
6111.901881	0.097976	0.704204	10295.404297
6111.902749	0.097994	0.704204	10380.463867
6111.903761	0.098038	0.704204	10479.678711
6111.904755	0.097943	0.704204	10577.034180
6111.905629	0.098020	0.704204	10662.704102
6111.906496	0.098009	0.704204	10747.677734
6112.895431	1.077502	0.757390	467.636017
6112.896306	1.562882	0.757390	1835.157837
6112.897290	1.554877	0.757390	3365.156494
6112.898236	1.512502	0.757390	4795.983887
6112.899143	1.471139	0.757390	6130.306641
6112.900025	1.433946	0.757390	7395.047363
6112.901043	1.392832	0.757390	8812.950195
6112.901943	1.110861	0.757390	9812.724609
6112.902818	0.154940	0.757390	9948.296875
6112.903732	0.097947	0.757390	10037.820312
6112.904718	0.097980	0.757390	10134.428711
6112.905636	0.098020	0.757390	10224.411133
6112.906506	0.098042	0.757390	10309.708008
6112.907509	0.098137	0.757390	10408.139648
6112.908419	0.097998	0.757390	10497.318359
6112.909338	0.098104	0.757390	10587.476562
6112.910197	0.098060	0.757390	10671.709961
6112.911225	0.098024	0.757390	10772.478516
6113.942456	1.069453	0.697879	451.309204
6113.943541	1.568844	0.697879	2153.504883
6113.944533	1.545410	0.697879	3686.551758
6113.945425	1.505673	0.697879	5029.611816
6113.946430	1.461453	0.697879	6498.372070
6113.947467	1.418126	0.697879	7968.968750
6113.948366	1.381465	0.697879	9210.905273
6113.949235	0.767307	0.697879	9877.695312
6113.950336	0.101499	0.697879	9989.445312
6113.951308	0.097928	0.697879	10084.631836
6113.952167	0.097998	0.697879	10168.812500
6113.953170	0.097958	0.697879	10267.064453
6113.954231	0.097954	0.697879	10370.994141
6113.955113	0.098005	0.697879	10457.434570
6113.955975	0.097928	0.697879	10541.848633
6113.957070	0.098086	0.697879	10649.252930
6113.958029	0.098068	0.697879	10743.299805
6113.958899	0.098082	0.697879	10828.631836
6114.948039	1.070537	0.762014	464.613098
6114.948907	1.562252	0.762014	1820.647949
6114.949945	1.552028	0.762014	3431.652588
6114.950983	1.506306	0.762014	4995.198242
6114.951869	1.466279	0.762014	6294.321777
6114.952825	1.426219	0.762014	7657.787598
6114.953901	1.383241	0.762014	9146.155273
6114.954821	0.765670	0.762014	9850.572266
6114.955687	0.107314	0.762014	9943.506836
6114.956740	0.098027	0.762014	10046.729492
6114.957746	0.097932	0.762014	10145.249023
6114.958639	0.098035	0.762014	10232.793945
6114.959600	0.098086	0.762014	10327.054687
6114.960655	0.098086	0.762014	10430.535156
6114.961569	0.097943	0.762014	10520.054687
6114.962434	0.098086	0.762014	10604.899414
6114.963532	0.098192	0.762014	10712.714844
6114.964519	0.098075	0.762014	10809.514648
6115.993614	1.142018	0.700993	575.576965
6115.994558	1.569880	0.700993	2057.543945
6115.995424	1.553156	0.700993	3402.576660
6115.996459	1.506918	0.700993	4962.236328
6115.997489	1.461486	0.700993	6467.566406
6115.998381	1.423909	0.700993	7737.692871
6115.999327	1.386116	0.700993	9048.958008
6116.000398	0.682375	0.700993	9779.782227
6116.001334	0.101375	0.700993	9874.668945
6116.002197	0.097980	0.700993	9959.225586
6116.003243	0.098123	0.700993	10061.861328
6116.004239	0.098075	0.700993	10159.543945
6116.005133	0.097972	0.700993	10247.130859
6116.006103	0.098097	0.700993	10342.285156
6116.007132	0.097969	0.700993	10443.094727
6116.008049	0.097939	0.700993	10532.905273
6116.008906	0.097950	0.700993	10616.848633
6116.009974	0.098068	0.700993	10721.584961
6116.999612	1.071636	0.755799	456.516815
6117.000676	1.568881	0.755799	2125.805908
6117.001566	1.550735	0.755799	3505.959961
6117.002438	1.511752	0.755799	4824.207520
6117.003367	1.469714	0.755799	6189.572266
6117.004358	1.427787	0.755799	7604.509277
6117.005284	1.390038	0.755799	8891.684570
6117.006180	1.056028	0.755799	9837.885742
6117.007198	0.129423	0.755799	9969.637695
6117.008100	0.097954	0.755799	10057.992187
6117.008977	0.098027	0.755799	10143.961914
6117.009835	0.097943	0.755799	10227.997070
6117.010899	0.097987	0.755799	10332.254883
6117.011795	0.097958	0.755799	10420.025391
6117.012673	0.098013	0.755799	10506.080078
6117.013689	0.098016	0.755799	10605.665039
6117.014616	0.098031	0.755799	10696.540039
6117.015531	0.097976	0.755799	10786.188477
6118.046748	1.157022	0.667550	588.923950
6118.047701	1.570734	0.667550	2085.833008
6118.048568	1.552346	0.667550	3431.717285
6118.049608	1.506200	0.667550	4998.165039
6118.050642	1.460555	0.667550	6508.379395
6118.051528	1.423213	0.667550	7769.346191
6118.052482	1.385149	0.667550	9090.778320
6118.053535	0.669631	0.667550	9795.900391
6118.054457	0.101576	0.667550	9889.553711
6118.055314	0.097976	0.667550	9973.519531
6118.056384	0.098049	0.667550	10078.432617
6118.057386	0.097965	0.667550	10176.593750
6118.058257	0.097976	0.667550	10261.930664
6118.059218	0.098101	0.667550	10356.205078
6118.060271	0.097947	0.667550	10459.342773
6118.061193	0.098016	0.667550	10549.713867
6118.062059	0.098049	0.667550	10634.625000
6118.063130	0.098020	0.667550	10739.604492
6119.052850	1.179642	0.730895	622.851135
6119.053886	1.571118	0.730895	2250.529541
6119.054768	1.547450	0.730895	3615.380371
6119.055727	1.504684	0.730895	5058.372070
6119.056800	1.456868	0.730895	6621.590820
6119.057724	1.418346	0.730895	7932.142578
6119.058598	1.382560	0.730895	9140.500000
6119.059675	0.591808	0.730895	9777.876953
6119.060676	0.098969	0.730895	9876.944336
6119.061575	0.098108	0.730895	9965.143555
6119.062548	0.098130	0.730895	10060.624023
6119.063602	0.097991	0.730895	10163.906250
6119.064505	0.097961	0.730895	10252.365234
6119.065371	0.098049	0.730895	10337.276367
6119.066463	0.098068	0.730895	10444.366211
6119.067454	0.098005	0.730895	10541.489258
6119.068348	0.098046	0.730895	10629.141602
6119.069343	0.098108	0.730895	10726.758789
6120.099367	1.165591	0.666414	613.100830
6120.100405	1.571455	0.666414	2244.271240
6120.101300	1.547032	0.666414	3628.865234
6120.102252	1.504878	0.666414	5061.508789
6120.103320	1.457124	0.666414	6617.717285
6120.104270	1.417672	0.666414	7964.505859
6120.105137	1.381941	0.666414	9162.648437
6120.106200	0.588215	0.666414	9787.920898
6120.107197	0.099166	0.666414	9886.790039
6120.108084	0.097921	0.666414	9973.646484
6120.109065	0.098027	0.666414	10069.811523
6120.110103	0.098005	0.666414	10171.541016
6120.111010	0.097925	0.666414	10260.358398
6120.111870	0.097991	0.666414	10344.630859
6120.112937	0.098053	0.666414	10449.252930
6120.113934	0.097936	0.666414	10546.894531
6120.114809	0.097961	0.666414	10632.610352
6120.115800	0.098038	0.666414	10729.766602
6121.105340	1.066099	0.723632	454.158051
6121.106267	1.561395	0.723632	1901.571533
6121.107251	1.551350	0.723632	3428.100098
6121.108176	1.511166	0.723632	4825.928223
6121.109044	1.470209	0.723632	6102.069336
6121.110147	1.426311	0.723632	7675.290527
6121.111054	1.388954	0.723632	8935.071289
6121.111933	1.035959	0.723632	9845.679687
6121.112794	0.138695	0.723632	9965.095703
6121.113840	0.097928	0.723632	10067.529297
6121.114718	0.097969	0.723632	10153.545898
6121.115583	0.098031	0.723632	10238.342773
6121.116591	0.097958	0.723632	10337.083984
6121.117507	0.097921	0.723632	10426.779297
6121.118371	0.098035	0.723632	10511.481445
6121.119327	0.098086	0.723632	10605.251953
6121.120350	0.097925	0.723632	10705.428711
6121.121237	0.097961	0.723632	10792.320312
6122.151896	1.094663	0.669141	499.166351
6122.152991	1.570214	0.669141	2218.550049
6122.153954	1.545249	0.669141	3706.625000
6122.154824	1.505771	0.669141	5016.645996
6122.155869	1.459710	0.669141	6542.042480
6122.156896	1.416951	0.669141	7997.250977
6122.157787	1.380901	0.669141	9227.633789
6122.158710	0.703649	0.669141	9877.101562
6122.159574	0.104762	0.669141	9967.616211
6122.160577	0.097950	0.669141	10065.860352
6122.161488	0.098009	0.669141	10155.146484
6122.162391	0.098090	0.669141	10243.721680
6122.163263	0.098016	0.669141	10329.192383
6122.164229	0.098057	0.669141	10423.915039
6122.165154	0.098079	0.669141	10514.637695
6122.166014	0.098060	0.669141	10598.969727
6122.167040	0.098060	0.669141	10699.580078
6122.167943	0.097965	0.669141	10788.042969
6123.157947	1.062854	0.724015	447.461517
6123.158940	1.565361	0.724015	2001.865356
6123.160026	1.546329	0.724015	3681.179199
6123.160904	1.505541	0.724015	5003.043945
6123.161794	1.464511	0.724015	6306.458496
6123.162890	1.420126	0.724015	7862.916016
6123.163845	1.381765	0.724015	9182.501953
6123.164718	0.802020	0.724015	9882.666016
6123.165737	0.103561	0.724015	9988.194336
6123.166771	0.097994	0.724015	10089.520508
6123.167660	0.098071	0.724015	10176.706055
6123.168586	0.097994	0.724015	10267.449219
6123.169652	0.097936	0.724015	10371.848633
6123.170585	0.098057	0.724015	10463.335937
6123.171448	0.098071	0.724015	10547.971680
6123.172506	0.098148	0.724015	10651.812500
6123.173523	0.097983	0.724015	10751.461914
6123.174413	0.098097	0.724015	10838.768555
6124.203978	1.079359	0.656794	468.441895
6124.204840	1.562241	0.656794	1815.093750
6124.205923	1.550464	0.656794	3494.246094
6124.206913	1.505856	0.656794	4985.043457
6124.207799	1.466488	0.656794	6284.352051
6124.208796	1.424916	0.656794	7704.993164
6124.209854	1.382787	0.656794	9167.981445
6124.210753	0.780784	0.656794	9869.906250
6124.211629	0.108142	0.656794	9964.638672
6124.212722	0.098177	0.656794	10071.946289
6124.213677	0.098020	0.656794	10165.555664
6124.214545	0.098079	0.656794	10250.687500
6124.215583	0.098101	0.656794	10352.515625
6124.216617	0.098046	0.656794	10453.894531
6124.217507	0.098057	0.656794	10541.165039
6124.218427	0.098112	0.656794	10631.427734
6124.219476	0.098210	0.656794	10734.450195
6124.220421	0.098053	0.656794	10827.110352
6125.210071	1.102544	0.722774	497.247314
6125.210946	1.564567	0.722774	1866.243042
6125.211924	1.553697	0.722774	3385.759277
6125.212986	1.507086	0.722774	4986.284668
6125.213909	1.465276	0.722774	6338.734375
6125.214780	1.427373	0.722774	7581.976562
6125.215875	1.384413	0.722774	9097.908203
6125.216853	0.754340	0.722774	9835.652344
6125.217719	0.106608	0.722774	9927.974609
6125.218740	0.097888	0.722774	10027.917969
6125.219789	0.098005	0.722774	10130.725586
6125.220669	0.098016	0.722774	10216.980469
6125.221555	0.098024	0.722774	10303.829102
6125.222649	0.098086	0.722774	10411.134766
6125.223610	0.097954	0.722774	10505.268555
6125.224472	0.098035	0.722774	10589.774414
6125.225480	0.098145	0.722774	10688.704102
6125.226518	0.098035	0.722774	10790.463867
6126.256140	1.142036	0.655179	568.734009
6126.257067	1.569214	0.655179	2023.395264
6126.257949	1.553427	0.655179	3393.517578
6126.258931	1.510353	0.655179	4876.684082
6126.259945	1.464320	0.655179	6361.504883
6126.260839	1.426879	0.655179	7637.134277
6126.261717	1.391195	0.655179	8858.603516
6126.262727	0.926796	0.655179	9794.666992
6126.263678	0.115177	0.655179	9904.200195
6126.264566	0.097892	0.655179	9991.127930
6126.265534	0.098104	0.655179	10086.092773
6126.266550	0.098027	0.655179	10185.688477
6126.267430	0.097980	0.655179	10271.910156
6126.268287	0.098053	0.655179	10355.941406
6126.269318	0.098148	0.655179	10457.131836
6126.270262	0.097958	0.655179	10549.603516
6126.271135	0.097983	0.655179	10635.142578
6126.272081	0.098159	0.655179	10728.000977
6127.262727	1.134130	0.701593	563.662415
6127.263638	1.568679	0.701593	1992.729248
6127.264500	1.553632	0.701593	3331.959473
6127.265602	1.505695	0.701593	4991.234863
6127.266605	1.461145	0.701593	6456.763184
6127.267505	1.423634	0.701593	7738.033691
6127.268499	1.383999	0.701593	9113.728516
6127.269559	0.645970	0.701593	9798.457031
6127.270455	0.101184	0.701593	9889.118164
6127.271338	0.098024	0.701593	9975.672852
6127.272418	0.098170	0.701593	10081.696289
6127.273376	0.098082	0.701593	10175.659180
6127.274240	0.098119	0.701593	10260.433594
6127.275255	0.098086	0.701593	10359.991211
6127.276287	0.098031	0.701593	10461.159180
6127.277162	0.098196	0.701593	10547.080078
6127.278056	0.098042	0.701593	10634.729492
6127.279148	0.098137	0.701593	10741.895508
6128.308267	1.143970	0.641451	615.455750
6128.309319	1.571067	0.641451	2268.218262
6128.310227	1.545586	0.641451	3671.610352
6128.311089	1.505533	0.641451	4969.380371
6128.312181	1.458754	0.641451	6562.339355
6128.313178	1.416570	0.641451	7974.659180
6128.314064	1.381256	0.641451	9198.452148
6128.315071	0.627092	0.641451	9829.933594
6128.316127	0.099481	0.641451	9934.985352
6128.317004	0.098042	0.641451	10020.967773
6128.317861	0.098024	0.641451	10104.973633
6128.318962	0.098060	0.641451	10212.938477
6128.319929	0.098057	0.641451	10307.758789
6128.320794	0.098060	0.641451	10392.581055
6128.321794	0.098104	0.641451	10490.685547
6128.322840	0.097980	0.641451	10593.171875
6128.323729	0.097987	0.641451	10680.282227
6128.324626	0.098082	0.641451	10768.261719
6129.314876	1.168938	0.704522	646.422729
6129.315933	1.570887	0.704522	2306.850586
6129.316830	1.544919	0.704522	3692.643311
6129.317692	1.504457	0.704522	4989.484863
6129.318789	1.457560	0.704522	6588.427734
6129.319757	1.417039	0.704522	7960.121094
6129.320631	1.382029	0.704522	9168.014648
6129.321658	0.644736	0.704522	9830.159180
6129.322698	0.099598	0.704522	9933.741211
6129.323581	0.097943	0.704522	10020.224609
6129.324451	0.098020	0.704522	10105.501953
6129.325543	0.098013	0.704522	10212.532227
6129.326502	0.097928	0.704522	10306.445312
6129.327371	0.097969	0.704522	10391.580078
6129.328387	0.098097	0.704522	10491.246094
6129.329434	0.098086	0.704522	10593.942383
6129.330330	0.098016	0.704522	10681.764648
6129.331255	0.098038	0.704522	10772.450195
6130.359759	1.079301	0.641301	470.575043
6130.360628	1.562856	0.641301	1828.697266
6130.361668	1.551727	0.641301	3442.493652
6130.362695	1.506508	0.641301	4989.676758
6130.363585	1.466334	0.641301	6294.714355
6130.364524	1.427054	0.641301	7634.718262
6130.365585	1.384153	0.641301	9103.304687
6130.366533	0.778865	0.641301	9841.667969
6130.367394	0.108124	0.641301	9934.762695
6130.368440	0.098009	0.641301	10037.280273
6130.369474	0.097976	0.641301	10138.587891
6130.370345	0.098060	0.641301	10223.998047
6130.371299	0.098119	0.641301	10317.603516
6130.372346	0.098031	0.641301	10420.242187
6130.373266	0.098046	0.641301	10510.444336
6130.374131	0.097969	0.641301	10595.187500
6130.375185	0.098020	0.641301	10698.500977
6130.376187	0.097965	0.641301	10796.662109
6131.366855	1.071855	0.699571	461.969696
6131.367727	1.562955	0.699571	1824.866699
6131.368694	1.555005	0.699571	3328.556396
6131.369654	1.512422	0.699571	4780.481445
6131.370587	1.470677	0.699571	6152.623535
6131.371459	1.433705	0.699571	7402.814453
6131.372519	1.391287	0.699571	8877.578125
6131.373415	1.061854	0.699571	9829.000000
6131.374294	0.142394	0.699571	9954.164062
6131.375185	0.097903	0.699571	10041.395508
6131.376222	0.097903	0.699571	10142.920898
6131.377102	0.097939	0.699571	10229.107422
6131.377977	0.098005	0.699571	10314.862305
6131.378957	0.098064	0.699571	10410.964844
6131.379882	0.097939	0.699571	10501.558594
6131.380795	0.097943	0.699571	10590.980469
6131.381658	0.097987	0.699571	10675.542969
6131.382699	0.097976	0.699571	10777.536133
6132.413375	1.065344	0.626912	452.771301
6132.414317	1.561578	0.626912	1923.778076
6132.415371	1.548644	0.626912	3556.048584
6132.416310	1.506731	0.626912	4970.869141
6132.417178	1.467385	0.626912	6244.559570
6132.418239	1.423414	0.626912	7754.802246
6132.419263	1.382135	0.626912	9170.108398
6132.420151	0.794520	0.626912	9875.642578
6132.421128	0.108347	0.626912	9981.498047
6132.422186	0.098071	0.626912	10085.257812
6132.423093	0.097991	0.626912	10174.135742
6132.423949	0.098068	0.626912	10258.082031
6132.425015	0.098152	0.626912	10362.711914
6132.426021	0.097976	0.626912	10461.275391
6132.426904	0.098020	0.626912	10547.827148
6132.427877	0.098090	0.626912	10643.268555
6132.428937	0.098046	0.626912	10747.197266
6132.429844	0.097983	0.626912	10836.068359
6133.419027	1.152045	0.682012	579.478455
6133.419906	1.567573	0.682012	1957.375244
6133.420809	1.553295	0.682012	3360.000488
6133.421885	1.506105	0.682012	4980.569336
6133.422831	1.464221	0.682012	6365.722656
6133.423695	1.427516	0.682012	7599.096191
6133.424742	1.385826	0.682012	9050.056641
6133.425774	0.725010	0.682012	9798.266602
6133.426651	0.104722	0.682012	9890.107422
6133.427583	0.098035	0.682012	9981.475586
6133.428648	0.097998	0.682012	10085.843750
6133.429574	0.098053	0.682012	10176.640625
6133.430439	0.098053	0.682012	10261.456055
6133.431485	0.098254	0.682012	10364.230469
6133.432510	0.098027	0.682012	10464.708984
6133.433396	0.098049	0.682012	10551.581055
6133.434355	0.098060	0.682012	10645.621094
6133.435418	0.097998	0.682012	10749.792969
6134.465563	1.147115	0.608161	596.500061
6134.466437	1.568247	0.608161	1967.147949
6134.467345	1.552474	0.608161	3376.794678
6134.468437	1.504753	0.608161	5019.985352
6134.469393	1.462449	0.608161	6418.086426
6134.470269	1.425513	0.608161	7666.835449
6134.471288	1.384464	0.608161	9077.604492
6134.472326	0.677725	0.608161	9781.083008
6134.473215	0.102821	0.608161	9872.491211
6134.474170	0.098075	0.608161	9966.152344
6134.475227	0.098082	0.608161	10069.825195
6134.476163	0.098104	0.608161	10161.650391
6134.477025	0.098049	0.608161	10246.168945
6134.478103	0.098185	0.608161	10352.011719
6134.479103	0.098057	0.608161	10450.068359
6134.479991	0.098097	0.608161	10537.178711
6134.480956	0.098159	0.608161	10631.902344
6134.481998	0.097994	0.608161	10734.012695
6135.471159	1.179313	0.669016	639.187500
6135.472208	1.571034	0.669016	2287.202148
6135.473087	1.546051	0.669016	3646.181152
6135.474038	1.503636	0.669016	5076.139648
6135.475097	1.456388	0.669016	6618.454590
6135.476037	1.417485	0.669016	7950.890625
6135.476907	1.381985	0.669016	9153.217773
6135.477953	0.614971	0.669016	9796.477539
6135.478972	0.099177	0.669016	9897.539062
6135.479864	0.098020	0.669016	9984.972656
6135.480815	0.098112	0.669016	10078.276367
6135.481866	0.098035	0.669016	10181.310547
6135.482792	0.098042	0.669016	10272.097656
6135.483660	0.098112	0.669016	10357.258789
6135.484739	0.098236	0.669016	10463.255859
6135.485717	0.097928	0.669016	10559.030273
6135.486603	0.098009	0.669016	10645.866211
6135.487580	0.097980	0.669016	10741.592773
6136.518672	1.138967	0.599991	569.483643
6136.519553	1.567881	0.599991	1950.786743
6136.520465	1.553112	0.599991	3367.224609
6136.521560	1.504860	0.599991	5015.045898
6136.522523	1.462306	0.599991	6423.246582
6136.523394	1.425516	0.599991	7664.871094
6136.524441	1.383322	0.599991	9113.208984
6136.525465	0.658422	0.599991	9787.432617
6136.526349	0.102803	0.599991	9878.310547
6136.527305	0.098064	0.599991	9972.059570
6136.528354	0.098031	0.599991	10074.894531
6136.529277	0.097972	0.599991	10165.323242
6136.530134	0.097976	0.599991	10249.289062
6136.531192	0.098064	0.599991	10353.041016
6136.532206	0.097998	0.599991	10452.411133
6136.533076	0.098020	0.599991	10537.688477
6136.534032	0.098049	0.599991	10631.423828
6136.535089	0.098053	0.599991	10735.065430
6137.523131	1.065773	0.658249	452.953369
6137.524137	1.564925	0.658249	2027.268311
6137.525195	1.546509	0.658249	3663.474609
6137.526094	1.505354	0.658249	5016.788086
6137.526963	1.464576	0.658249	6289.504883
6137.528070	1.420272	0.658249	7861.746094
6137.529032	1.381750	0.658249	9190.990234
6137.529905	0.798325	0.658249	9887.927734
6137.530943	0.103781	0.658249	9995.652344
6137.531978	0.098038	0.658249	10097.122070
6137.532858	0.098031	0.658249	10183.389648
6137.533794	0.098086	0.658249	10275.198242
6137.534859	0.098071	0.658249	10379.644531
6137.535797	0.098104	0.658249	10471.666016
6137.536656	0.097969	0.658249	10555.821289
6137.537695	0.098126	0.658249	10657.774414
6137.538726	0.098090	0.658249	10758.905273
6137.539605	0.098038	0.658249	10845.081055
6138.570826	1.199762	0.610924	667.067688
6138.571854	1.571345	0.610924	2282.410645
6138.572743	1.546234	0.610924	3657.012695
6138.573678	1.504395	0.610924	5063.621582
6138.574742	1.457563	0.610924	6614.468750
6138.575681	1.418276	0.610924	7946.230469
6138.576548	1.382974	0.610924	9145.268555
6138.577618	0.620786	0.610924	9809.509766
6138.578633	0.099232	0.610924	9910.230469
6138.579503	0.098002	0.610924	9995.492187
6138.580452	0.098068	0.610924	10088.558594
6138.581494	0.097961	0.610924	10190.634766
6138.582426	0.098126	0.610924	10282.088867
6138.583292	0.098035	0.610924	10366.987305
6138.584327	0.098177	0.610924	10468.600586
6138.585342	0.098035	0.610924	10568.105469
6138.586231	0.098126	0.610924	10655.339844
6138.587191	0.098090	0.610924	10749.505859
6139.575269	1.116518	0.664239	520.297607
6139.576143	1.565072	0.664239	1888.170532
6139.577129	1.553013	0.664239	3419.440918
6139.578182	1.506262	0.664239	5005.535156
6139.579093	1.465206	0.664239	6340.337891
6139.579955	1.427523	0.664239	7570.862793
6139.581032	1.384922	0.664239	9062.423828
6139.582025	0.745887	0.664239	9803.089844
6139.582919	0.105275	0.664239	9897.205078
6139.583908	0.098071	0.664239	9994.197266
6139.584960	0.098079	0.664239	10097.375977
6139.585857	0.098024	0.664239	10185.302734
6139.586720	0.097987	0.664239	10269.865234
6139.587818	0.097983	0.664239	10377.451172
6139.588788	0.097972	0.664239	10472.484375
6139.589657	0.097939	0.664239	10557.593750
6139.590727	0.098053	0.664239	10662.510742
6139.591766	0.097994	0.664239	10764.327148
6140.623863	1.103617	0.629462	535.254211
6140.624929	1.570682	0.629462	2209.601562
6140.625827	1.547611	0.629462	3599.356445
6140.626694	1.508591	0.629462	4907.305176
6140.627722	1.462610	0.629462	6410.868164
6140.628700	1.422067	0.629462	7801.649414
6140.629573	1.386621	0.629462	9012.169922
6140.630611	0.749476	0.629462	9790.125977
6140.631648	0.101173	0.629462	9895.041992
6140.632535	0.097987	0.629462	9981.956055
6140.633461	0.098108	0.629462	10072.803711
6140.634518	0.098097	0.629462	10176.492187
6140.635459	0.097903	0.629462	10268.619141
6140.636322	0.097921	0.629462	10353.125000
6140.637358	0.098119	0.629462	10454.776367
6140.638386	0.098035	0.629462	10555.555664
6140.639265	0.097991	0.629462	10641.689453
6140.640222	0.098079	0.629462	10735.550781
6141.627969	1.179261	0.629209	656.848633
6141.628884	1.569924	0.629209	2093.329590
6141.629815	1.549552	0.629209	3535.962402
6141.630681	1.509617	0.629209	4843.290527
6141.631720	1.464727	0.629209	6365.141602
6141.632592	1.427322	0.629209	7609.766113
6141.633473	1.391719	0.629209	8835.870117
6141.634456	0.970891	0.629209	9790.255859
6141.635399	0.118451	0.629209	9901.955078
6141.636277	0.097936	0.629209	9987.942383
6141.637221	0.098038	0.629209	10080.490234
6141.638256	0.098042	0.629209	10181.963867
6141.639141	0.098046	0.629209	10268.734375
6141.639999	0.097976	0.629209	10352.797852
6141.641052	0.097976	0.629209	10455.966797
6141.641989	0.097925	0.629209	10547.722656
6141.642859	0.098057	0.629209	10633.032227
6141.643769	0.098097	0.629209	10722.300781
6142.677524	1.116694	0.619722	573.980896
6142.678479	1.570518	0.619722	2073.825195
6142.679398	1.550131	0.619722	3498.395264
6142.680284	1.510730	0.619722	4836.902344
6142.681329	1.464401	0.619722	6367.201172
6142.682239	1.425710	0.619722	7664.597656
6142.683117	1.390023	0.619722	8885.038086
6142.683998	0.991040	0.619722	9758.144531
6142.685055	0.111980	0.619722	9876.507812
6142.685944	0.098005	0.619722	9963.634766
6142.686813	0.098093	0.619722	10048.877930
6142.687745	0.098199	0.619722	10140.399414
6142.689146	0.098145	0.619722	10277.900391
6142.690410	0.097943	0.619722	10401.700195
6142.693200	0.098027	0.619722	10675.196289
6142.750056	0.098185	0.619722	16257.591797
6142.752773	0.098071	0.619722	16524.050781
6142.754768	0.098287	0.619722	16720.134766
