time (s)	coil I (A)	last det (V)	int current (uC)
6602.041452	1.213312	0.465916	706.147400
6602.042471	1.574546	0.465916	2310.609619
6602.043361	1.548783	0.465916	3689.026367
6602.044222	1.508324	0.465916	4987.693359
6602.045323	1.461628	0.465916	6596.946289
6602.046225	1.423136	0.465916	7880.615234
6602.047097	1.387658	0.465916	9090.652344
6602.048100	0.747499	0.465916	9840.393555
6602.049090	0.101836	0.465916	9941.210937
6602.049978	0.098060	0.465916	10028.288086
6602.050839	0.098115	0.465916	10112.765625
6602.051944	0.098126	0.465916	10221.195312
6602.052854	0.097991	0.465916	10310.367187
6602.053729	0.098031	0.465916	10396.144531
6602.054716	0.098130	0.465916	10492.999023
6602.055707	0.098101	0.465916	10590.216797
6602.056591	0.098152	0.465916	10676.983398
6602.057452	0.098126	0.465916	10761.469727
6603.131937	1.156348	0.466166	595.519043
6603.132834	1.571459	0.466166	2005.117554
6603.133698	1.555803	0.466166	3349.331543
6603.134810	1.508654	0.466166	5026.954102
6603.135775	1.465635	0.466166	6441.291504
6603.136640	1.428959	0.466166	7677.340820
6603.137707	1.386083	0.466166	9156.291016
6603.138747	0.633560	0.466166	9815.193359
6603.139629	0.102198	0.466166	9905.332031
6603.140573	0.098064	0.466166	9997.904297
6603.141643	0.098163	0.466166	10102.938477
6603.142573	0.098104	0.466166	10194.175781
6603.143431	0.098101	0.466166	10278.345703
6603.144455	0.098071	0.466166	10378.770508
6603.145483	0.097925	0.466166	10479.437500
6603.146377	0.098053	0.466166	10567.096680
6603.147329	0.098181	0.466166	10660.565430
6603.148378	0.098207	0.466166	10763.583984
6604.097587	1.181744	0.515703	632.233215
6604.098622	1.573407	0.515703	2260.709473
6604.099514	1.549929	0.515703	3643.246094
6604.100449	1.508020	0.515703	5053.245117
6604.101513	1.460603	0.515703	6607.326660
6604.102460	1.421144	0.515703	7953.149902
6604.103332	1.385453	0.515703	9161.264648
6604.104404	0.599861	0.515703	9804.315430
6604.105429	0.099089	0.515703	9905.881836
6604.106320	0.098024	0.515703	9993.220703
6604.107283	0.098174	0.515703	10087.761719
6604.108318	0.098145	0.515703	10189.341797
6604.109233	0.098086	0.515703	10279.090820
6604.110096	0.098075	0.515703	10363.729492
6604.111175	0.098090	0.515703	10469.568359
6604.112177	0.097976	0.515703	10567.740234
6604.113053	0.098031	0.515703	10653.615234
6604.114045	0.098101	0.515703	10750.930664
6605.187003	1.069354	0.478686	453.406219
6605.188029	1.569697	0.478686	2063.915527
6605.188981	1.552709	0.478686	3542.094238
6605.189864	1.513348	0.478686	4878.380859
6605.190794	1.471465	0.478686	6246.843262
6605.191850	1.427380	0.478686	7754.157227
6605.192749	1.390353	0.478686	9004.083984
6605.193623	1.003762	0.478686	9881.372070
6605.194668	0.114020	0.478686	10000.522461
6605.195631	0.097932	0.478686	10094.831055
6605.196505	0.098071	0.478686	10180.544922
6605.197413	0.098126	0.478686	10269.643555
6605.198476	0.098145	0.478686	10373.970703
6605.199361	0.098086	0.478686	10460.776367
6605.200225	0.098038	0.478686	10545.481445
6605.201261	0.098243	0.478686	10647.261719
6605.202219	0.098020	0.478686	10741.165039
6605.203081	0.098152	0.478686	10825.771484
6606.151183	1.143878	0.538330	581.090088
6606.152139	1.572165	0.538330	2084.080322
6606.153007	1.555455	0.538330	3434.215576
6606.154025	1.510031	0.538330	4971.426758
6606.155072	1.463690	0.538330	6503.910156
6606.155969	1.425699	0.538330	7782.762695
6606.156888	1.388309	0.538330	9058.619141
6606.157973	0.675300	0.538330	9791.320312
6606.158912	0.101400	0.538330	9886.535156
6606.159776	0.098057	0.538330	9971.255859
6606.160806	0.098148	0.538330	10072.348633
6606.161836	0.097987	0.538330	10173.275391
6606.162714	0.098141	0.538330	10259.443359
6606.163667	0.098188	0.538330	10353.016602
6606.164705	0.098119	0.538330	10454.864258
6606.165637	0.098177	0.538330	10546.365234
6606.166498	0.098101	0.538330	10630.830078
6606.167549	0.098232	0.538330	10734.072266
6607.239612	1.060334	0.495295	445.340454
6607.240644	1.568741	0.495295	2064.281738
6607.241701	1.548677	0.495295	3701.232910
6607.242580	1.508390	0.495295	5027.107422
6607.243532	1.466060	0.495295	6422.795898
6607.244594	1.421290	0.495295	7932.206055
6607.245532	1.383475	0.495295	9229.906250
6607.246404	0.770068	0.495295	9901.406250
6607.247454	0.102231	0.495295	10008.749023
6607.248447	0.098013	0.495295	10106.075195
6607.249336	0.098060	0.495295	10193.250977
6607.250282	0.098203	0.495295	10286.151367
6607.251338	0.098057	0.495295	10389.699219
6607.252264	0.098064	0.495295	10480.506836
6607.253127	0.098104	0.495295	10565.170898
6607.254205	0.098218	0.495295	10671.049805
6607.255192	0.098082	0.495295	10767.857422
6607.256081	0.098060	0.495295	10855.033203
6608.206270	1.062437	0.547385	450.473114
6608.207308	1.568961	0.547385	2079.054687
6608.208327	1.549369	0.547385	3657.861572
6608.209211	1.509694	0.547385	4992.430664
6608.210179	1.466909	0.547385	6412.398437
6608.211233	1.422561	0.547385	7911.777832
6608.212150	1.385054	0.547385	9181.872070
6608.213017	0.823418	0.547385	9895.775391
6608.214088	0.103488	0.547385	10006.610352
6608.215087	0.098005	0.547385	10104.517578
6608.215960	0.097980	0.547385	10190.053711
6608.216921	0.098218	0.547385	10284.441406
6608.217966	0.098038	0.547385	10386.891602
6608.218884	0.098049	0.547385	10476.900391
6608.219751	0.098079	0.547385	10561.934570
6608.220816	0.098141	0.547385	10666.455078
6608.221801	0.098046	0.547385	10763.030273
6608.222686	0.098053	0.547385	10849.807617
6609.291722	1.086786	0.527494	477.099030
6609.292601	1.565504	0.527494	1853.177124
6609.293615	1.555594	0.527494	3430.549805
6609.294665	1.509675	0.527494	5015.708984
6609.295562	1.468297	0.527494	6332.771484
6609.296426	1.430182	0.527494	7568.448730
6609.297518	1.387617	0.527494	9083.726562
6609.298490	0.803438	0.527494	9864.667969
6609.299352	0.109779	0.527494	9959.297852
6609.300422	0.098071	0.527494	10064.234375
6609.301451	0.098112	0.527494	10165.191406
6609.302328	0.098097	0.527494	10251.222656
6609.303245	0.098053	0.527494	10341.137695
6609.304301	0.098038	0.527494	10444.666016
6609.305235	0.098159	0.527494	10536.346680
6609.306108	0.098097	0.527494	10621.985352
6609.307125	0.098159	0.527494	10721.813477
6609.308151	0.098177	0.527494	10822.543945
6610.262467	1.071746	0.558221	456.563629
6610.263330	1.562754	0.558221	1805.220215
6610.264421	1.552994	0.558221	3499.537109
6610.265347	1.511759	0.558221	4899.425781
6610.266233	1.471970	0.558221	6203.591309
6610.267207	1.431244	0.558221	7597.623047
6610.268216	1.389701	0.558221	8999.831055
6610.269112	0.970609	0.558221	9869.497070
6610.269974	0.127390	0.558221	9979.307617
6610.271059	0.098049	0.558221	10085.691406
6610.271973	0.098068	0.558221	10175.325195
6610.272849	0.098064	0.558221	10261.229492
6610.273837	0.098093	0.558221	10358.145508
6610.274840	0.098071	0.558221	10456.510742
6610.275724	0.098046	0.558221	10543.182617
6610.276582	0.098104	0.558221	10627.356445
6610.277636	0.098086	0.558221	10730.739258
6610.278572	0.098057	0.558221	10822.520508
6611.342774	1.068750	0.561794	447.806274
6611.343856	1.569701	0.561794	2146.222656
6611.344866	1.547637	0.561794	3709.335693
6611.345738	1.508254	0.561794	5024.533691
6611.346732	1.464005	0.561794	6479.754883
6611.347795	1.420056	0.561794	7989.274414
6611.348681	1.383413	0.561794	9214.978516
6611.349565	0.748176	0.561794	9876.366211
6611.350664	0.100814	0.561794	9987.161133
6611.351627	0.098108	0.561794	10081.638672
6611.352493	0.098053	0.561794	10166.552734
6611.353508	0.098112	0.561794	10266.135742
6611.354546	0.098079	0.561794	10367.941406
6611.355437	0.098042	0.561794	10455.296875
6611.356357	0.098207	0.561794	10545.647461
6611.357422	0.098137	0.561794	10650.164062
6611.358370	0.098038	0.561794	10743.104492
6611.359232	0.098071	0.561794	10827.641602
6612.319764	1.119437	0.577747	576.510193
6612.320824	1.572279	0.577747	2243.125977
6612.321751	1.547889	0.577747	3678.019531
6612.322621	1.507844	0.577747	4989.844238
6612.323715	1.460171	0.577747	6587.270996
6612.324710	1.418445	0.577747	7998.623535
6612.325605	1.382358	0.577747	9235.833984
6612.326609	0.605643	0.577747	9843.899414
6612.327647	0.099467	0.577747	9947.145508
6612.328547	0.098192	0.577747	10035.518555
6612.329408	0.098119	0.577747	10119.999023
6612.330493	0.098082	0.577747	10226.417969
6612.331455	0.098016	0.577747	10320.709961
6612.332326	0.098027	0.577747	10406.091797
6612.333336	0.098199	0.577747	10505.273437
6612.334387	0.098123	0.577747	10608.400391
6612.335270	0.098057	0.577747	10694.984375
6612.336151	0.098075	0.577747	10781.388672
6613.392318	1.058881	0.601925	447.906525
6613.393235	1.562413	0.601925	1880.639526
6613.394326	1.551800	0.601925	3573.653809
6613.395210	1.511404	0.601925	4909.734863
6613.396081	1.471985	0.601925	6191.833984
6613.397117	1.428153	0.601925	7671.400391
6613.398082	1.389071	0.601925	9011.853516
6613.398964	0.972492	0.601925	9869.590820
6613.399861	0.126332	0.601925	9982.910156
6613.400959	0.097994	0.601925	10090.507812
6613.401858	0.097947	0.601925	10178.561523
6613.402722	0.097994	0.601925	10263.228516
6613.403762	0.098075	0.601925	10365.226562
6613.404734	0.097980	0.601925	10460.462891
6613.405610	0.098038	0.601925	10546.344727
6613.406467	0.098042	0.601925	10630.367187
6613.407554	0.097983	0.601925	10736.875000
6613.408451	0.097991	0.601925	10824.772461
6614.376985	1.147591	0.590408	582.976440
6614.377949	1.571990	0.590408	2098.374512
6614.378811	1.554357	0.590408	3438.229980
6614.379888	1.506720	0.590408	5060.967285
6614.380941	1.460266	0.590408	6598.627441
6614.381824	1.422935	0.590408	7855.078613
6614.382765	1.384874	0.590408	9158.245117
6614.383843	0.593910	0.590408	9798.480469
6614.384775	0.099921	0.590408	9891.606445
6614.385634	0.097928	0.590408	9975.726562
6614.386680	0.098005	0.590408	10078.240234
6614.387706	0.097987	0.590408	10178.775391
6614.388594	0.098016	0.590408	10265.813477
6614.389552	0.097980	0.590408	10359.677734
6614.390591	0.098071	0.590408	10461.574219
6614.391518	0.098009	0.590408	10552.428711
6614.392382	0.098016	0.590408	10637.115234
6614.393453	0.098134	0.590408	10742.215820
6615.441854	1.061151	0.649314	450.989227
6615.442851	1.563852	0.649314	2010.150146
6615.443898	1.549497	0.649314	3632.473633
6615.444812	1.508188	0.649314	5010.958008
6615.445679	1.467997	0.649314	6283.711426
6615.446749	1.424495	0.649314	7807.920898
6615.447738	1.384277	0.649314	9176.970703
6615.448618	0.812238	0.649314	9891.740234
6615.449601	0.108505	0.649314	9998.400391
6615.450647	0.097961	0.649314	10100.868164
6615.451545	0.097917	0.649314	10188.797852
6615.452409	0.098031	0.649314	10273.497070
6615.453484	0.098002	0.649314	10378.848633
6615.454477	0.097980	0.649314	10476.142578
6615.455368	0.098064	0.649314	10563.517578
6615.456344	0.098049	0.649314	10659.213867
6615.457396	0.098057	0.649314	10762.369141
6615.458284	0.098002	0.649314	10849.394531
6616.433227	1.154839	0.606658	657.103333
6616.434246	1.573246	0.606658	2260.240967
6616.435134	1.548662	0.606658	3635.452881
6616.435994	1.509104	0.606658	4933.282227
6616.437035	1.463357	0.606658	6456.636719
6616.437972	1.424084	0.606658	7791.003906
6616.438848	1.388698	0.606658	9007.502930
6616.439824	0.838264	0.606658	9825.648437
6616.440841	0.103879	0.606658	9931.293945
6616.441728	0.097958	0.606658	10018.182617
6616.442591	0.098049	0.606658	10102.798828
6616.443644	0.097980	0.606658	10205.971680
6616.444578	0.097969	0.606658	10297.474609
6616.445448	0.098101	0.606658	10382.822266
6616.446398	0.098035	0.606658	10475.955078
6616.447435	0.098005	0.606658	10577.586914
6616.448313	0.097969	0.606658	10663.603516
6616.449171	0.097991	0.606658	10747.679687
6617.492490	1.112329	0.685883	561.726196
6617.493550	1.571532	0.685883	2227.550049
6617.494497	1.547230	0.685883	3692.777100
6617.495366	1.507625	0.685883	5002.902832
6617.496426	1.460768	0.685883	6551.316406
6617.497433	1.418936	0.685883	7980.184570
6617.498315	1.383201	0.685883	9200.167969
6617.499301	0.675886	0.685883	9866.591797
6617.500344	0.100228	0.685883	9971.129883
6617.501252	0.098090	0.685883	10060.195312
6617.502108	0.098013	0.685883	10144.093750
6617.503180	0.098027	0.685883	10249.178711
6617.504175	0.097921	0.685883	10346.610352
6617.505047	0.098031	0.685883	10432.093750
6617.506027	0.098009	0.685883	10528.142578
6617.507077	0.098009	0.685883	10631.051758
6617.507981	0.098005	0.685883	10719.648437
6617.508851	0.097983	0.685883	10804.893555
6618.489891	1.158937	0.648448	594.534546
6618.490869	1.572173	0.648448	2132.119629
6618.491734	1.553097	0.648448	3475.548340
6618.492821	1.504750	0.648448	5111.210937
6618.493864	1.458798	0.648448	6632.736816
6618.494754	1.421265	0.648448	7897.662109
6618.495693	1.383325	0.648448	9196.604492
6618.496763	0.569249	0.648448	9805.701172
6618.497701	0.099646	0.648448	9899.168945
6618.498561	0.097991	0.648448	9983.441406
6618.499605	0.098079	0.648448	10085.835937
6618.500625	0.098082	0.648448	10185.879883
6618.501516	0.097961	0.648448	10273.163086
6618.502465	0.098009	0.648448	10366.173828
6618.503518	0.097994	0.648448	10469.362305
6618.504436	0.098009	0.648448	10559.334961
6618.505307	0.098013	0.648448	10644.704102
6618.506388	0.098159	0.648448	10750.814453
6619.545534	1.065300	0.712647	452.752594
6619.546473	1.562384	0.712647	1919.831177
6619.547452	1.554250	0.712647	3441.442383
6619.548362	1.513923	0.712647	4819.112305
6619.549243	1.473816	0.712647	6117.543945
6619.550297	1.429885	0.712647	7624.643066
6619.551199	1.392675	0.712647	8880.835937
6619.552075	1.093107	0.712647	9838.397461
6619.552941	0.153384	0.712647	9971.227539
6619.553995	0.097874	0.712647	10074.386719
6619.554878	0.097961	0.712647	10160.886719
6619.555744	0.098002	0.712647	10245.755859
6619.556725	0.097921	0.712647	10341.816406
6619.557650	0.097947	0.712647	10432.416992
6619.558556	0.097998	0.712647	10521.203125
6619.559435	0.097881	0.712647	10607.240234
6619.560471	0.097969	0.712647	10708.736328
6619.561366	0.097888	0.712647	10796.346680
6620.545551	1.112717	0.724216	567.485779
6620.546623	1.571829	0.724216	2252.486084
6620.547551	1.546985	0.724216	3688.087891
6620.548418	1.507214	0.724216	4994.842773
6620.549476	1.460793	0.724216	6540.362305
6620.550493	1.418324	0.724216	7982.797852
6620.551375	1.382809	0.724216	9202.435547
6620.552372	0.653254	0.724216	9853.730469
6620.553429	0.099646	0.724216	9959.056641
6620.554335	0.098005	0.724216	10047.849609
6620.555192	0.098130	0.724216	10131.947266
6620.556257	0.098159	0.724216	10236.486328
6620.557246	0.097906	0.724216	10333.315430
6620.558128	0.097976	0.724216	10419.730469
6620.559109	0.098104	0.724216	10515.970703
6620.560155	0.097939	0.724216	10618.415039
6620.561054	0.098031	0.724216	10706.544922
6620.561917	0.098156	0.724216	10791.252930
6621.599760	1.142655	0.758095	575.898132
6621.600713	1.571005	0.758095	2073.065430
6621.601595	1.553709	0.758095	3443.436523
6621.602541	1.512554	0.758095	4874.312500
6621.603576	1.465825	0.758095	6391.441406
6621.604464	1.428080	0.758095	7659.576172
6621.605335	1.392217	0.758095	8872.197266
6621.606404	0.851916	0.758095	9782.896484
6621.607340	0.108856	0.758095	9884.786133
6621.608215	0.097899	0.758095	9970.448242
6621.609123	0.098002	0.758095	10059.433594
6621.610181	0.097972	0.758095	10163.088867
6621.611079	0.097910	0.758095	10251.011719
6621.611943	0.097939	0.758095	10335.631836
6621.612959	0.098057	0.758095	10435.257812
6621.613927	0.097972	0.758095	10530.094727
6621.614801	0.097958	0.758095	10615.709961
6621.615682	0.098134	0.758095	10702.166016
6622.599686	1.134269	0.770671	568.268677
6622.600629	1.570554	0.770671	2049.301270
6622.601500	1.554261	0.770671	3403.062988
6622.602544	1.508174	0.770671	4977.596680
6622.603567	1.462720	0.770671	6473.958984
6622.604455	1.425348	0.770671	7739.667969
6622.605417	1.386936	0.770671	9073.900391
6622.606475	0.679922	0.770671	9793.257812
6622.607404	0.101635	0.770671	9887.676758
6622.608269	0.097863	0.770671	9972.328125
6622.609351	0.098042	0.770671	10078.409180
6622.610337	0.097947	0.770671	10174.984375
6622.611228	0.097961	0.770671	10262.267578
6622.612207	0.097939	0.770671	10358.150391
6622.613250	0.097965	0.770671	10460.328125
6622.614152	0.098093	0.770671	10548.808594
6622.615010	0.098020	0.770671	10632.910156
6622.616084	0.098079	0.770671	10738.246094
6623.655957	1.140293	0.791989	570.146484
6623.656970	1.572034	0.791989	2162.616699
6623.657851	1.551522	0.791989	3529.507812
6623.658870	1.506859	0.791989	5064.997070
6623.659912	1.460592	0.791989	6586.934082
6623.660800	1.422594	0.791989	7850.197754
6623.661674	1.385515	0.791989	9061.137695
6623.662775	0.641184	0.791989	9767.081055
6623.663732	0.100455	0.791989	9863.216797
6623.664604	0.098104	0.791989	9948.763672
6623.665625	0.098167	0.791989	10048.991211
6623.666661	0.098060	0.791989	10150.582031
6623.667551	0.097994	0.791989	10237.796875
6623.668469	0.098236	0.791989	10327.977539
6623.669537	0.098075	0.791989	10432.721680
6623.670475	0.097906	0.791989	10524.557617
6623.671341	0.098115	0.791989	10609.525391
6623.672382	0.098049	0.791989	10711.594727
6624.651203	1.069797	0.726327	460.012878
6624.652229	1.567833	0.726327	2068.609619
6624.653283	1.547706	0.726327	3699.892090
6624.654164	1.506954	0.726327	5027.518555
6624.655081	1.466048	0.726327	6371.884766
6624.655963	1.428516	0.726327	7631.835449
6624.656930	1.389525	0.726327	8975.505859
6624.657875	0.919036	0.726327	9843.994141
6624.658774	0.116477	0.726327	9948.707031
6624.659781	0.097976	0.726327	10047.369141
6624.660677	0.098002	0.726327	10135.178711
6624.661602	0.098082	0.726327	10225.905273
6624.662461	0.098013	0.726327	10310.098633
6624.663444	0.098071	0.726327	10406.502930
6624.664367	0.098027	0.726327	10496.982422
6624.665270	0.098009	0.726327	10585.484375
6624.666144	0.098093	0.726327	10671.217773
6624.667096	0.097987	0.726327	10764.500977
6625.713157	1.139216	0.773040	560.494446
6625.714041	1.568148	0.773040	1946.737305
6625.714974	1.554558	0.773040	3397.140137
6625.716055	1.506823	0.773040	5026.015625
6625.717002	1.464672	0.773040	6413.059570
6625.717879	1.426860	0.773040	7664.416016
6625.718944	1.384559	0.773040	9138.971680
6625.719960	0.651823	0.773040	9801.223633
6625.720854	0.102275	0.773040	9892.658203
6625.721816	0.098104	0.773040	9987.034180
6625.722874	0.098093	0.773040	10090.816406
6625.723799	0.098071	0.773040	10181.532227
6625.724660	0.098016	0.773040	10265.923828
6625.725751	0.098177	0.773040	10373.035156
6625.726729	0.098075	0.773040	10468.952148
6625.727611	0.098130	0.773040	10555.502930
6625.728607	0.098119	0.773040	10653.229492
6625.729657	0.098101	0.773040	10756.235352
6626.703307	1.085559	0.678072	476.560455
6626.704186	1.564365	0.678072	1851.637451
6626.705057	1.560073	0.678072	3210.461426
6626.706067	1.517007	0.678072	4742.638184
6626.706993	1.473790	0.678072	6107.368164
6626.707916	1.435188	0.678072	7432.046875
6626.708780	1.398567	0.678072	8640.408203
6626.709800	1.136807	0.678072	9799.951172
6626.710694	0.165092	0.678072	9947.542969
6626.711566	0.097928	0.678072	10032.936523
6626.712519	0.098148	0.678072	10126.471680
6626.713468	0.098049	0.678072	10219.520508
6626.714389	0.097939	0.678072	10309.722656
6626.715249	0.098086	0.678072	10394.076172
6626.716290	0.098097	0.678072	10496.195312
6626.717165	0.097983	0.678072	10581.930664
6626.718035	0.098090	0.678072	10667.268555
6626.718911	0.098002	0.678072	10753.118164
6627.768368	1.164016	0.745792	632.060730
6627.769434	1.572415	0.745792	2308.254639
6627.770341	1.546399	0.745792	3710.838379
6627.771206	1.506288	0.745792	5013.777344
6627.772297	1.459054	0.745792	6605.605469
6627.773274	1.418632	0.745792	7991.608398
6627.774140	1.383387	0.745792	9189.622070
6627.775167	0.630494	0.745792	9837.139648
6627.776209	0.099536	0.745792	9940.856445
6627.777097	0.098141	0.745792	10028.005859
6627.777990	0.098108	0.745792	10115.616211
6627.779062	0.098148	0.745792	10220.831055
6627.780018	0.098090	0.745792	10314.604492
6627.780880	0.098013	0.745792	10399.091797
6627.781894	0.098148	0.745792	10498.614258
6627.782930	0.098013	0.745792	10600.155273
6627.783822	0.098229	0.745792	10687.775391
6627.784741	0.098108	0.745792	10777.936523
6628.753852	1.063363	0.682954	454.055969
6628.754715	1.562117	0.682954	1802.162598
6628.755793	1.552987	0.682954	3476.282715
6628.756726	1.511565	0.682954	4886.572754
6628.757608	1.471637	0.682954	6184.556641
6628.758594	1.430966	0.682954	7595.488770
6628.759599	1.389082	0.682954	8991.516602
6628.760491	0.978673	0.682954	9864.493164
6628.761351	0.129338	0.682954	9975.724609
6628.762431	0.098005	0.682954	10081.570312
6628.763344	0.097950	0.682954	10170.999023
6628.764215	0.098086	0.682954	10256.431641
6628.765153	0.098090	0.682954	10348.439453
6628.766190	0.098159	0.682954	10450.230469
6628.767078	0.098145	0.682954	10537.382812
6628.767945	0.098086	0.682954	10622.422852
6628.769002	0.098024	0.682954	10726.034180
6628.769963	0.098060	0.682954	10820.270508
6629.825574	1.158615	0.763154	599.003723
6629.826523	1.571287	0.763154	2090.154785
6629.827391	1.553646	0.763154	3438.719727
6629.828437	1.507749	0.763154	5015.825195
6629.829464	1.462031	0.763154	6517.331055
6629.830343	1.424352	0.763154	7769.336426
6629.831306	1.385911	0.763154	9103.968750
6629.832360	0.650717	0.763154	9789.824219
6629.833293	0.101158	0.763154	9884.205078
6629.834164	0.098112	0.763154	9969.660156
6629.835240	0.098123	0.763154	10075.240234
6629.836249	0.098082	0.763154	10174.205078
6629.837140	0.098075	0.763154	10261.589844
6629.838106	0.098232	0.763154	10356.482422
6629.839148	0.098119	0.763154	10458.722656
6629.840057	0.098123	0.763154	10547.916016
6629.840920	0.098101	0.763154	10632.577148
6629.841994	0.098199	0.763154	10738.042969
6630.806472	1.071636	0.718996	465.089905
6630.807345	1.563417	0.718996	1829.952637
6630.808397	1.552555	0.718996	3463.240479
6630.809415	1.507522	0.718996	4997.897949
6630.810317	1.467041	0.718996	6321.168945
6630.811289	1.426842	0.718996	7708.059570
6630.812359	1.383299	0.718996	9188.190430
6630.813295	0.716177	0.718996	9858.532227
6630.814156	0.105608	0.718996	9949.460937
6630.815248	0.098101	0.718996	10056.586914
6630.816225	0.097932	0.718996	10152.266602
6630.817116	0.098013	0.718996	10239.595703
6630.818105	0.098046	0.718996	10336.562500
6630.819146	0.098097	0.718996	10438.681641
6630.820036	0.097983	0.718996	10525.886719
6630.820894	0.098049	0.718996	10610.012695
6630.821985	0.098196	0.718996	10717.144531
6630.822946	0.097954	0.718996	10811.278320
6631.881149	1.061964	0.803470	450.272797
6631.882145	1.563570	0.803470	2007.588989
6631.883082	1.553035	0.803470	3462.782471
6631.884006	1.512360	0.803470	4860.202637
6631.884868	1.472201	0.803470	6129.239746
6631.885887	1.429548	0.803470	7585.949707
6631.886786	1.392949	0.803470	8838.210937
6631.887665	1.123187	0.803470	9825.492187
6631.888599	0.159987	0.803470	9974.919922
6631.889576	0.097874	0.803470	10070.541992
6631.890488	0.098020	0.803470	10159.936523
6631.891362	0.098068	0.803470	10245.647461
6631.892424	0.098031	0.803470	10349.756836
6631.893314	0.098020	0.803470	10436.995117
6631.894188	0.098075	0.803470	10522.712891
6631.895065	0.097972	0.803470	10608.634766
6631.896102	0.097994	0.803470	10710.254883
6631.896974	0.097928	0.803470	10795.648437
6632.860090	1.058474	0.764987	446.676117
6632.861057	1.562534	0.764987	1957.646606
6632.862112	1.549263	0.764987	3592.118652
6632.863033	1.507848	0.764987	4980.846680
6632.863906	1.467806	0.764987	6262.241699
6632.864984	1.423066	0.764987	7796.307129
6632.865988	1.382732	0.764987	9184.570312
6632.866886	0.773156	0.764987	9878.864258
6632.867881	0.106132	0.764987	9984.464844
6632.868921	0.097998	0.764987	10086.382812
6632.869824	0.097994	0.764987	10174.872070
6632.870683	0.097991	0.764987	10259.045898
6632.871768	0.098079	0.764987	10365.460937
6632.872740	0.097991	0.764987	10460.708008
6632.873605	0.098016	0.764987	10545.492187
6632.874615	0.098053	0.764987	10644.525391
6632.875638	0.098123	0.764987	10744.904297
6632.876523	0.098020	0.764987	10831.652344
6633.935375	1.138129	0.824727	579.307495
6633.936273	1.569298	0.824727	1988.537109
6633.937144	1.554540	0.824727	3342.541260
6633.938228	1.507683	0.824727	4976.869629
6633.939232	1.462573	0.824727	6445.292969
6633.940127	1.425655	0.824727	7721.254883
6633.941114	1.385845	0.824727	9089.083984
6633.942181	0.653730	0.824727	9786.614258
6633.943084	0.101466	0.824727	9878.238281
6633.943945	0.097980	0.824727	9962.598633
6633.945052	0.098038	0.824727	10071.126953
6633.946015	0.097983	0.824727	10165.485352
6633.946879	0.097932	0.824727	10250.098633
6633.947932	0.098002	0.824727	10353.293945
6633.948974	0.097958	0.824727	10455.366211
6633.949863	0.097972	0.824727	10542.463867
6633.950786	0.098020	0.824727	10632.936523
6633.951847	0.098049	0.824727	10736.966797
6634.914231	1.059001	0.818258	447.957611
6634.915226	1.564607	0.818258	2004.741577
6634.916183	1.551661	0.818258	3489.681641
6634.917117	1.510613	0.818258	4900.593750
6634.917983	1.470297	0.818258	6173.870605
6634.919030	1.427384	0.818258	7668.341797
6634.919918	1.391177	0.818258	8903.707031
6634.920789	1.077308	0.818258	9842.042969
6634.921780	0.143342	0.818258	9984.094727
6634.922709	0.098035	0.818258	10075.168945
6634.923619	0.098035	0.818258	10164.380859
6634.924496	0.097972	0.818258	10250.302734
6634.925520	0.098093	0.818258	10350.750000
6634.926423	0.097965	0.818258	10439.212891
6634.927295	0.098060	0.818258	10524.721680
6634.928209	0.098024	0.818258	10614.315430
6634.929207	0.097961	0.818258	10712.081055
6634.930122	0.097943	0.818258	10801.699219
6635.988962	1.110868	0.831833	515.442688
6635.989844	1.565797	0.831833	1896.475830
6635.990832	1.553983	0.831833	3431.811035
6635.991892	1.507438	0.831833	5029.695312
6635.992792	1.465997	0.831833	6349.092773
6635.993667	1.428010	0.831833	7598.601562
6635.994756	1.384830	0.831833	9106.681641
6635.995742	0.727057	0.831833	9823.559570
6635.996625	0.105139	0.831833	9916.397461
6635.997620	0.098042	0.831833	10013.949219
6635.998670	0.098079	0.831833	10116.931641
6635.999561	0.098068	0.831833	10204.309570
6636.000422	0.098068	0.831833	10288.746094
6636.001514	0.098068	0.831833	10395.835937
6636.002477	0.098101	0.831833	10490.306641
6636.003350	0.098035	0.831833	10575.890625
6636.004390	0.098119	0.831833	10677.934570
6636.005422	0.097987	0.831833	10779.057617
6636.968003	1.191083	0.852841	669.388489
6636.968975	1.571924	0.852841	2197.298584
6636.969902	1.548109	0.852841	3632.395752
6636.970769	1.507522	0.852841	4939.417480
6636.971888	1.460284	0.852841	6573.475586
6636.972789	1.422019	0.852841	7854.714844
6636.973658	1.386683	0.852841	9059.742187
6636.974730	0.682961	0.852841	9791.876953
6636.975718	0.100759	0.852841	9891.426758
6636.976601	0.097965	0.852841	9977.929687
6636.977467	0.098009	0.852841	10062.805664
6636.978553	0.097910	0.852841	10169.135742
6636.979440	0.097961	0.852841	10256.027344
6636.980297	0.098035	0.852841	10340.042969
6636.981368	0.098016	0.852841	10445.018555
6636.982331	0.098027	0.852841	10539.418945
6636.983213	0.098046	0.852841	10625.895508
6636.984071	0.097939	0.852841	10709.927734
6638.041625	1.146731	0.837529	583.686035
6638.042538	1.569847	0.837529	2016.956787
6638.043400	1.554481	0.837529	3356.919678
6638.044486	1.507496	0.837529	4994.060547
6638.045486	1.462654	0.837529	6456.714355
6638.046366	1.425923	0.837529	7711.526367
6638.047364	1.385929	0.837529	9094.683594
6638.048419	0.668998	0.837529	9800.476562
6638.049306	0.102045	0.837529	9890.990234
6638.050179	0.098068	0.837529	9976.603516
6638.051260	0.098053	0.837529	10082.598633
6638.052234	0.098046	0.837529	10178.094727
6638.053104	0.098177	0.837529	10263.508789
6638.054157	0.098101	0.837529	10366.808594
6638.055198	0.098009	0.837529	10468.835937
6638.056082	0.098115	0.837529	10555.569336
6638.056980	0.098119	0.837529	10643.679687
6638.058045	0.098108	0.837529	10748.165039
6639.023034	1.059386	0.895452	447.060913
6639.024061	1.566057	0.895452	2055.401367
6639.025105	1.547344	0.895452	3670.828125
6639.025990	1.506976	0.895452	5004.501953
6639.026900	1.465627	0.895452	6338.222656
6639.027992	1.420767	0.895452	7889.699707
6639.028944	1.382175	0.895452	9205.530273
6639.029815	0.790272	0.895452	9893.857422
6639.030877	0.102667	0.895452	10002.889648
6639.031901	0.098005	0.895452	10103.247070
6639.032772	0.098013	0.895452	10188.616211
6639.033721	0.098115	0.895452	10281.727539
6639.034768	0.098027	0.895452	10384.362305
6639.035695	0.098057	0.895452	10475.260742
6639.036561	0.098013	0.895452	10560.139648
6639.037621	0.098130	0.895452	10664.157227
6639.038634	0.098009	0.895452	10763.440430
6639.039522	0.098009	0.895452	10850.472656
6640.094276	1.182979	0.843020	666.016907
6640.095281	1.572850	0.843020	2246.731445
6640.096175	1.548604	0.843020	3631.183105
6640.097039	1.508375	0.843020	4934.418945
6640.098127	1.461808	0.843020	6524.865723
6640.099037	1.423052	0.843020	7819.842773
6640.099914	1.387643	0.843020	9036.805664
6640.100926	0.785764	0.843020	9831.999023
6640.101927	0.102605	0.843020	9934.707031
6640.102813	0.098035	0.843020	10021.565430
6640.103677	0.097998	0.843020	10106.235352
6640.104766	0.098031	0.843020	10212.991211
6640.105690	0.098082	0.843020	10303.619141
6640.106568	0.097972	0.843020	10389.638672
6640.107537	0.098104	0.843020	10484.702148
6640.108536	0.097921	0.843020	10582.525391
6640.109423	0.098101	0.843020	10669.541016
6640.110284	0.098068	0.843020	10753.977539
6641.077793	1.150327	0.918659	590.117859
6641.078726	1.570177	0.918659	2055.093018
6641.079589	1.554093	0.918659	3396.275391
6641.080659	1.507050	0.918659	5008.818359
6641.081677	1.461555	0.918659	6496.681641
6641.082564	1.424264	0.918659	7760.003906
6641.083522	1.385988	0.918659	9087.780273
6641.084568	0.680497	0.918659	9799.580078
6641.085489	0.101997	0.918659	9893.519531
6641.086345	0.098024	0.918659	9977.427734
6641.087414	0.098104	0.918659	10082.300781
6641.088424	0.098104	0.918659	10181.385742
6641.089300	0.098079	0.918659	10267.302734
6641.090257	0.098086	0.918659	10361.170898
6641.091319	0.097994	0.918659	10465.241211
6641.092228	0.098064	0.918659	10554.381836
6641.093095	0.098090	0.918659	10639.425781
6641.094168	0.098254	0.918659	10744.852539
6642.148324	1.113135	0.847910	514.268250
6642.149203	1.565870	0.847910	1890.668213
6642.150180	1.554218	0.847910	3409.138672
6642.151243	1.506965	0.847910	5011.042969
6642.152164	1.465649	0.847910	6360.906250
6642.153029	1.428153	0.847910	7596.258789
6642.154123	1.384885	0.847910	9111.323242
6642.155117	0.713632	0.847910	9820.672852
6642.156007	0.104139	0.847910	9913.356445
6642.156990	0.098086	0.847910	10009.775391
6642.158047	0.098057	0.847910	10113.420898
6642.158946	0.098005	0.847910	10201.527344
6642.159806	0.097958	0.847910	10285.771484
6642.160884	0.098082	0.847910	10391.503906
6642.161848	0.097903	0.847910	10485.881836
6642.162709	0.098075	0.847910	10570.324219
6642.163779	0.098152	0.847910	10675.346680
6642.164820	0.098071	0.847910	10777.438477
6643.132861	1.063737	0.918583	452.088043
6643.133853	1.562933	0.918583	2002.517822
6643.134873	1.548893	0.918583	3582.388672
6643.135765	1.509089	0.918583	4928.496094
6643.136635	1.468971	0.918583	6206.500977
6643.137698	1.425102	0.918583	7721.384766
6643.138634	1.387233	0.918583	9019.834961
6643.139520	0.955078	0.918583	9866.034180
6643.140472	0.123743	0.918583	9983.836914
6643.141493	0.097932	0.918583	10083.825195
6643.142386	0.097921	0.918583	10171.268555
6643.143248	0.098013	0.918583	10255.755859
6643.144303	0.097998	0.918583	10359.143555
6643.145234	0.097976	0.918583	10450.359375
6643.146105	0.097994	0.918583	10535.712891
6643.147048	0.098152	0.918583	10628.270508
6643.148098	0.097954	0.918583	10731.122070
6643.148979	0.098060	0.918583	10817.513672
6644.200892	1.086584	0.866026	463.971558
6644.201863	1.568317	0.866026	1986.807129
6644.202792	1.553584	0.866026	3430.086670
6644.203672	1.513989	0.866026	4762.397461
6644.204710	1.468096	0.866026	6286.280762
6644.205611	1.429937	0.866026	7574.653320
6644.206532	1.392755	0.866026	8857.380859
6644.207401	1.101984	0.866026	9815.004883
6644.208402	0.131708	0.866026	9946.844727
6644.209323	0.097950	0.866026	10037.056641
6644.210188	0.097983	0.866026	10121.812500
6644.211213	0.097980	0.866026	10222.242187
6644.212092	0.098024	0.866026	10308.405273
6644.212953	0.098009	0.866026	10392.791016
6644.213815	0.098064	0.866026	10477.322266
6644.214870	0.098013	0.866026	10580.725586
6644.215760	0.097936	0.866026	10667.888672
6644.216635	0.097928	0.866026	10753.576172
6645.187088	1.139854	0.898977	575.626038
6645.188076	1.571356	0.898977	2128.125977
6645.188972	1.551097	0.898977	3517.909180
6645.189952	1.507489	0.898977	4995.248535
6645.191003	1.460797	0.898977	6530.546387
6645.191914	1.422096	0.898977	7826.075684
6645.192780	1.385629	0.898977	9026.030273
6645.193893	0.656598	0.898977	9756.824219
6645.194855	0.100272	0.898977	9853.286133
6645.195730	0.097994	0.898977	9939.031250
6645.196736	0.098013	0.898977	10037.631836
6645.197777	0.097947	0.898977	10139.594727
6645.198657	0.097969	0.898977	10225.807617
6645.199528	0.097874	0.898977	10311.055664
6645.200623	0.098053	0.898977	10418.423828
6645.201595	0.097950	0.898977	10513.631836
6645.202452	0.097965	0.898977	10597.587891
6645.203491	0.098053	0.898977	10699.464844
6646.253599	1.154901	0.882602	588.999573
6646.254615	1.571668	0.882602	2185.813721
6646.255490	1.550090	0.882602	3542.142578
6646.256463	1.506574	0.882602	5008.038574
6646.257529	1.459431	0.882602	6563.791992
6646.258441	1.421283	0.882602	7860.001953
6646.259309	1.384717	0.882602	9061.935547
6646.260410	0.630945	0.882602	9756.605469
6646.261395	0.099639	0.882602	9854.750000
6646.262294	0.098002	0.882602	9942.853516
6646.263267	0.098068	0.882602	10038.273437
6646.264320	0.098020	0.882602	10141.488281
6646.265205	0.098016	0.882602	10228.232422
6646.266074	0.098093	0.882602	10313.475586
6646.267195	0.098159	0.882602	10423.511719
6646.268169	0.097932	0.882602	10518.897461
6646.269032	0.097994	0.882602	10603.466797
6646.270061	0.098068	0.882602	10704.377930
6647.241671	1.087386	0.868813	474.100494
6647.242596	1.566361	0.868813	1922.984497
6647.243466	1.555778	0.868813	3276.510986
6647.244525	1.511125	0.868813	4876.792969
6647.245418	1.470509	0.868813	6189.957520
6647.246293	1.433635	0.868813	7444.388672
6647.247300	1.393751	0.868813	8847.896484
6647.248243	1.034597	0.868813	9823.521484
6647.249165	0.132565	0.868813	9945.746094
6647.250024	0.098042	0.868813	10029.963867
6647.251051	0.098035	0.868813	10130.645508
6647.251950	0.097961	0.868813	10218.712891
6647.252827	0.098082	0.868813	10304.731445
6647.253787	0.098064	0.868813	10398.873047
6647.254742	0.097925	0.868813	10492.391602
6647.255661	0.097950	0.868813	10582.408203
6647.256525	0.098016	0.868813	10667.094727
6647.257581	0.098020	0.868813	10770.603516
6648.305085	1.059038	0.891746	447.973083
6648.306017	1.561707	0.891746	1903.483643
6648.307111	1.548717	0.891746	3597.780029
6648.308043	1.506727	0.891746	5002.049805
6648.308915	1.467272	0.891746	6281.510742
6648.309945	1.423971	0.891746	7748.200684
6648.310978	1.382391	0.891746	9176.210937
6648.311879	0.772793	0.891746	9872.497070
6648.312835	0.107318	0.891746	9975.092773
6648.313879	0.098024	0.891746	10077.429687
6648.314800	0.098016	0.891746	10167.703125
6648.315664	0.098053	0.891746	10252.420898
6648.316732	0.098053	0.891746	10357.141602
6648.317739	0.097928	0.891746	10455.755859
6648.318631	0.097983	0.891746	10543.157227
6648.319606	0.098141	0.891746	10638.844727
6648.320633	0.098159	0.891746	10739.654297
6648.321542	0.098013	0.891746	10828.748047
6649.298873	1.060320	0.844289	448.515259
6649.299854	1.562413	0.844289	1981.242798
6649.300876	1.549984	0.844289	3565.326660
6649.301757	1.510448	0.844289	4896.031250
6649.302621	1.470648	0.844289	6166.671387
6649.303690	1.426882	0.844289	7692.008789
6649.304623	1.388423	0.844289	8987.407227
6649.305499	0.997028	0.844289	9860.803711
6649.306452	0.130107	0.844289	9984.795898
6649.307480	0.097866	0.844289	10085.402344
6649.308374	0.098038	0.844289	10173.048828
6649.309239	0.098024	0.844289	10257.838867
6649.310300	0.098071	0.844289	10361.892578
6649.311247	0.098009	0.844289	10454.707031
6649.312124	0.098060	0.844289	10540.706055
6649.313039	0.098046	0.844289	10630.417969
6649.314090	0.097983	0.844289	10733.398437
6649.314967	0.098049	0.844289	10819.387695
6650.357267	1.137854	0.913842	581.443359
6650.358141	1.568192	0.913842	1952.043335
6650.359025	1.554734	0.913842	3326.428223
6650.360129	1.507097	0.913842	4990.263672
6650.361099	1.463807	0.913842	6410.156738
6650.361965	1.427252	0.913842	7646.157227
6650.362997	1.385793	0.913842	9076.295898
6650.364024	0.703791	0.913842	9799.089844
6650.364907	0.104092	0.913842	9891.002930
6650.365834	0.097958	0.913842	9981.809570
6650.366885	0.098071	0.913842	10084.882812
6650.367822	0.097994	0.913842	10176.703125
6650.368683	0.098049	0.913842	10261.124023
6650.369715	0.098148	0.913842	10362.413086
6650.370730	0.098005	0.913842	10461.888672
6650.371603	0.098009	0.913842	10547.450195
6650.372546	0.098145	0.913842	10640.000000
6650.373584	0.098049	0.913842	10741.775391
6651.356704	1.155157	0.851519	590.285461
6651.357655	1.570939	0.851519	2084.248291
6651.358519	1.553137	0.851519	3426.158691
6651.359564	1.507126	0.851519	5001.105957
6651.360599	1.461171	0.851519	6513.417480
6651.361483	1.423759	0.851519	7772.020020
6651.362423	1.386050	0.851519	9074.906250
6651.363490	0.669262	0.851519	9789.007812
6651.364417	0.101536	0.851519	9883.131836
6651.365278	0.098082	0.851519	9967.581055
6651.366336	0.098203	0.851519	10071.479492
6651.367353	0.097987	0.851519	10171.132812
6651.368222	0.098064	0.851519	10256.350586
6651.369188	0.098057	0.851519	10351.073242
6651.370234	0.098038	0.851519	10453.621094
6651.371154	0.098002	0.851519	10543.782227
6651.372024	0.098053	0.851519	10629.087891
6651.373088	0.098177	0.851519	10733.548828
6652.408773	1.083336	0.933580	471.251251
6652.409648	1.563373	0.933580	1839.202515
6652.410621	1.555426	0.933580	3352.631836
6652.411572	1.513777	0.933580	4792.233398
6652.412472	1.472867	0.933580	6117.813965
6652.413461	1.432061	0.933580	7534.122070
6652.414387	1.393195	0.933580	8824.220703
6652.415308	1.081073	0.933580	9819.888672
6652.416182	0.149246	0.933580	9950.329102
6652.417140	0.097928	0.933580	10044.144531
6652.418067	0.098016	0.933580	10135.005859
6652.418953	0.098042	0.933580	10221.871094
6652.419853	0.097969	0.933580	10310.042969
6652.420848	0.097943	0.933580	10407.496094
6652.421772	0.098042	0.933580	10498.086914
6652.422638	0.098053	0.933580	10583.000977
6652.423677	0.098064	0.933580	10684.889648
6652.424561	0.097969	0.933580	10771.494141
6653.412384	1.132837	0.892407	590.208069
6653.413450	1.571514	0.892407	2265.441650
6653.414369	1.546007	0.892407	3686.222168
6653.415238	1.505519	0.892407	4994.518066
6653.416322	1.458691	0.892407	6575.739258
6653.417311	1.417299	0.892407	7977.447266
6653.418205	1.381560	0.892407	9212.561523
6653.419209	0.623800	0.892407	9838.856445
6653.420246	0.099338	0.892407	9941.870117
6653.421133	0.098064	0.892407	10028.852539
6653.421992	0.098115	0.892407	10113.133789
6653.423094	0.098167	0.892407	10221.313477
6653.424054	0.098035	0.892407	10315.426758
6653.424911	0.098027	0.892407	10399.436523
6653.425980	0.098086	0.892407	10504.290039
6653.427026	0.098097	0.892407	10606.899414
6653.427898	0.098064	0.892407	10692.411133
6653.428819	0.098159	0.892407	10782.815430
6654.459919	1.137902	0.973747	563.261353
6654.460846	1.569496	0.973747	2018.183960
6654.461724	1.554137	0.973747	3382.716309
6654.462705	1.511580	0.973747	4865.575684
6654.463729	1.464858	0.973747	6365.590820
6654.464622	1.427446	0.973747	7640.300293
6654.465485	1.391320	0.973747	8841.008789
6654.466578	0.841073	0.973747	9760.301758
6654.467513	0.107384	0.973747	9860.706055
6654.468387	0.097983	0.973747	9946.343750
6654.469356	0.098057	0.973747	10041.360352
6654.470368	0.098071	0.973747	10140.608398
6654.471240	0.098108	0.973747	10226.158203
6654.472098	0.098207	0.973747	10310.419922
6654.473146	0.098093	0.973747	10413.221680
6654.474082	0.098024	0.973747	10504.971680
6654.474951	0.097980	0.973747	10590.116211
6654.475887	0.098064	0.973747	10681.904297
6655.467969	1.076924	0.941129	464.154175
6655.468963	1.564885	0.941129	2019.650146
6655.470022	1.547439	0.941129	3658.388184
6655.470928	1.506032	0.941129	5022.852539
6655.471796	1.465089	0.941129	6294.549805
6655.472921	1.420067	0.941129	7892.125000
6655.473879	1.381765	0.941129	9215.855469
6655.474747	0.783929	0.941129	9896.306641
6655.475783	0.103678	0.941129	10003.716797
6655.476811	0.098090	0.941129	10104.552734
6655.477693	0.098093	0.941129	10191.071289
6655.478608	0.098068	0.941129	10280.802734
6655.479689	0.098002	0.941129	10386.742187
6655.480617	0.098046	0.941129	10477.728516
6655.481477	0.098035	0.941129	10562.038086
6655.482493	0.098115	0.941129	10661.723633
6655.483521	0.098064	0.941129	10762.533203
6655.484406	0.098009	0.941129	10849.271484
6656.512021	1.116292	0.992785	576.006409
6656.513089	1.571060	0.992785	2253.897949
6656.514013	1.545740	0.992785	3682.161621
6656.514880	1.505552	0.992785	4987.475098
6656.515978	1.457794	0.992785	6588.132812
6656.516972	1.416277	0.992785	7995.912109
6656.517864	1.380689	0.992785	9227.486328
6656.518866	0.605288	0.992785	9833.985352
6656.519908	0.099181	0.992785	9937.332031
6656.520802	0.098115	0.992785	10025.046875
6656.521666	0.098199	0.992785	10109.891602
6656.522751	0.098221	0.992785	10216.461914
6656.523705	0.098005	0.992785	10309.958984
6656.524578	0.098079	0.992785	10395.582031
6656.525598	0.098284	0.992785	10495.831055
6656.526643	0.098115	0.992785	10598.361328
6656.527512	0.098046	0.992785	10683.563477
6656.528394	0.098119	0.992785	10770.104492
6657.521590	1.079187	0.951172	453.258514
6657.522700	1.569759	0.951172	2195.691406
6657.523682	1.545912	0.951172	3713.776855
6657.524553	1.506259	0.951172	5025.728027
6657.525569	1.461039	0.951172	6510.143555
6657.526615	1.417822	0.951172	7993.185547
6657.527508	1.381494	0.951172	9226.859375
6657.528432	0.727394	0.951172	9898.971680
6657.529501	0.100243	0.951172	10006.131836
6657.530451	0.098141	0.951172	10099.365234
6657.531319	0.098170	0.951172	10184.577148
6657.532359	0.098196	0.951172	10286.701172
6657.533375	0.098097	0.951172	10386.367187
6657.534263	0.098163	0.951172	10473.536133
6657.535229	0.098123	0.951172	10568.322266
6657.536273	0.098112	0.951172	10670.750977
6657.537191	0.098130	0.951172	10760.833984
6657.538049	0.098156	0.951172	10845.051758
6658.566165	1.141362	0.980639	572.963867
6658.567091	1.569371	0.980639	2026.201782
6658.567956	1.553749	0.980639	3370.194336
6658.569017	1.507573	0.980639	4969.729492
6658.570024	1.462515	0.980639	6442.481445
6658.570905	1.425553	0.980639	7698.393555
6658.571892	1.386193	0.980639	9066.565430
6658.572956	0.680819	0.980639	9790.957031
6658.573845	0.102495	0.980639	9882.075195
6658.574712	0.098013	0.980639	9967.051758
6658.575776	0.098192	0.980639	10071.528320
6658.576769	0.098082	0.980639	10168.923828
6658.577657	0.098046	0.980639	10255.988281
6658.578635	0.098112	0.980639	10351.941406
6658.579699	0.098123	0.980639	10456.343750
6658.580601	0.098090	0.980639	10544.820312
6658.581468	0.098123	0.980639	10629.892578
6658.582579	0.098203	0.980639	10738.996094
6659.573220	1.114153	0.924658	516.966919
6659.574110	1.566112	0.924658	1910.806641
6659.574989	1.557166	0.924658	3279.555176
6659.575965	1.515040	0.924658	4758.234375
6659.576920	1.471055	0.924658	6163.091797
6659.577838	1.432614	0.924658	7478.230957
6659.578706	1.396611	0.924658	8690.489258
6659.579744	1.062455	0.924658	9793.317383
6659.580633	0.143152	0.924658	9920.579102
6659.581496	0.097983	0.924658	10005.138672
6659.582421	0.098079	0.924658	10095.861328
6659.583405	0.098130	0.924658	10192.420898
6659.584319	0.098049	0.924658	10282.038086
6659.585212	0.098137	0.924658	10369.674805
6659.586209	0.098145	0.924658	10467.525391
6659.587126	0.098090	0.924658	10557.473633
6659.588049	0.098177	0.924658	10648.091797
6659.588915	0.098108	0.924658	10733.053711
6660.620231	1.078660	0.941210	469.216949
6660.621100	1.562428	0.941210	1826.966797
6660.622180	1.550632	0.941210	3501.649658
6660.623189	1.505552	0.941210	5020.751465
6660.624089	1.465485	0.941210	6339.687500
6660.625074	1.424480	0.941210	7742.800293
6660.626135	1.381857	0.941210	9208.950195
6660.627048	0.721805	0.941210	9867.958984
6660.627909	0.105593	0.941210	9958.875000
6660.629007	0.098188	0.941210	10066.685547
6660.629985	0.098112	0.941210	10162.638672
6660.630846	0.098119	0.941210	10247.119141
6660.631939	0.098159	0.941210	10354.407227
6660.632958	0.098141	0.941210	10454.413086
6660.633840	0.098185	0.941210	10541.011719
6660.634752	0.098119	0.941210	10630.496094
6660.635809	0.098046	0.941210	10734.129883
6660.636754	0.098108	0.941210	10826.841797
6661.626354	1.125743	0.889712	529.099365
6661.627234	1.565878	0.889712	1907.071777
6661.628099	1.556671	0.889712	3253.592285
6661.629184	1.510298	0.889712	4892.265625
6661.630105	1.468466	0.889712	6244.722656
6661.630979	1.431537	0.889712	7495.885742
6661.631935	1.393030	0.889712	8827.622070
6661.632969	0.931014	0.889712	9790.291016
6661.633863	0.118323	0.889712	9896.071289
6661.634729	0.098005	0.889712	9980.944336
6661.635789	0.098137	0.889712	10084.969727
6661.636741	0.098031	0.889712	10178.294922
6661.637619	0.098130	0.889712	10264.453125
6661.638565	0.098207	0.889712	10357.356445
6661.639589	0.098137	0.889712	10457.848633
6661.640464	0.098137	0.889712	10543.718750
6661.641324	0.098126	0.889712	10628.107422
6661.642398	0.098243	0.889712	10733.621094
6662.672867	1.107078	0.915481	513.684021
6662.673743	1.565398	0.915481	1884.972656
6662.674712	1.554430	0.915481	3391.215332
6662.675785	1.506354	0.915481	5007.532715
6662.676716	1.464789	0.915481	6371.250977
6662.677587	1.427450	0.915481	7614.560059
6662.678661	1.384724	0.915481	9101.753906
6662.679668	0.699745	0.915481	9806.396484
6662.680561	0.103671	0.915481	9898.974609
6662.681537	0.098038	0.915481	9994.660156
6662.682595	0.098079	0.915481	10098.427734
6662.683507	0.098060	0.915481	10187.858398
6662.684375	0.098112	0.915481	10273.019531
6662.685451	0.098177	0.915481	10378.658203
6662.686437	0.098046	0.915481	10475.331055
6662.687316	0.098104	0.915481	10561.564453
6662.688313	0.098148	0.915481	10659.417969
6662.689356	0.098196	0.915481	10761.835937
6663.678497	1.154048	0.873329	589.718445
6663.679516	1.571627	0.873329	2191.206543
6663.680408	1.549032	0.873329	3572.943115
6663.681387	1.505398	0.873329	5046.727539
6663.682447	1.458318	0.873329	6592.544434
6663.683365	1.419822	0.873329	7895.940918
6663.684235	1.383523	0.873329	9099.605469
6663.685340	0.589951	0.873329	9751.501953
6663.686305	0.099327	0.873329	9847.352539
6663.687188	0.098141	0.873329	9934.010742
6663.688185	0.098185	0.873329	10031.901367
6663.689227	0.098093	0.873329	10134.114258
6663.690124	0.098090	0.873329	10222.100586
6663.690988	0.098225	0.873329	10306.966797
6663.692089	0.098240	0.873329	10415.128906
6663.693052	0.098185	0.873329	10509.680664
6663.693913	0.098097	0.873329	10594.142578
6663.694962	0.098214	0.873329	10697.168945
6664.727007	1.106682	0.885978	507.967133
6664.727902	1.565925	0.885978	1909.470337
6664.728892	1.552972	0.885978	3446.913086
6664.729827	1.511093	0.885978	4859.784668
6664.730751	1.469978	0.885978	6218.044434
6664.731619	1.432145	0.885978	7461.145996
6664.732663	1.390957	0.885978	8913.304687
6664.733543	1.044386	0.885978	9832.364258
6664.734425	0.139175	0.885978	9955.116211
6664.735379	0.098046	0.885978	10048.651367
6664.736331	0.098060	0.885978	10142.004883
6664.737248	0.098053	0.885978	10231.919922
6664.738130	0.098075	0.885978	10318.421875
6664.739165	0.098020	0.885978	10419.873047
6664.740073	0.098016	0.885978	10508.872070
6664.740956	0.098082	0.885978	10595.478516
6664.741847	0.098112	0.885978	10682.895508
6664.742872	0.098024	0.885978	10783.370117
6665.731098	1.121345	0.851592	583.099487
6665.732172	1.571125	0.851592	2270.488281
6665.733094	1.545135	0.851592	3695.103271
6665.733970	1.504596	0.851592	5013.129395
6665.735061	1.457347	0.851592	6603.095703
6665.736055	1.415570	0.851592	8010.172363
6665.736958	1.379736	0.851592	9256.074219
6665.737951	0.582352	0.851592	9834.349609
6665.738994	0.099005	0.851592	9937.612305
6665.739891	0.098123	0.851592	10025.627930
6665.740750	0.098163	0.851592	10109.950195
6665.741850	0.098148	0.851592	10217.913086
6665.742819	0.098020	0.851592	10312.894531
6665.743687	0.098101	0.851592	10398.045898
6665.744741	0.098163	0.851592	10501.509766
6665.745774	0.097998	0.851592	10602.742187
6665.746658	0.098104	0.851592	10689.466797
6665.747564	0.098243	0.851592	10778.475586
6666.780598	1.076008	0.870952	450.847473
6666.781698	1.569569	0.870952	2177.373535
6666.782664	1.546252	0.870952	3671.053223
6666.783551	1.506757	0.870952	5007.546387
6666.784569	1.461918	0.870952	6495.778809
6666.785625	1.418174	0.870952	7993.370605
6666.786509	1.381893	0.870952	9214.963867
6666.787398	0.753966	0.870952	9885.240234
6666.788479	0.101411	0.870952	9994.865234
6666.789433	0.097991	0.870952	10088.348633
6666.790296	0.098104	0.870952	10173.012695
6666.791335	0.098196	0.870952	10275.038086
6666.792371	0.098086	0.870952	10376.655273
6666.793240	0.098046	0.870952	10461.857422
6666.794141	0.098119	0.870952	10550.262695
6666.795215	0.098130	0.870952	10655.654297
6666.796159	0.098097	0.870952	10748.257812
6666.797028	0.098115	0.870952	10833.519531
6667.782600	1.087793	0.851644	475.365540
6667.783480	1.564149	0.851644	1851.816895
6667.784484	1.553452	0.851644	3411.482910
6667.785540	1.507365	0.851644	5003.259766
6667.786439	1.466298	0.851644	6321.460937
6667.787336	1.427721	0.851644	7602.126465
6667.788425	1.384215	0.851644	9109.537109
6667.789398	0.754186	0.851644	9843.359375
6667.790258	0.106893	0.851644	9935.288086
6667.791295	0.098126	0.851644	10037.044922
6667.792321	0.098097	0.851644	10137.692383
6667.793212	0.098020	0.851644	10225.028320
6667.794162	0.098192	0.851644	10318.310547
6667.795210	0.098024	0.851644	10421.039062
6667.796130	0.098148	0.851644	10511.334961
6667.796990	0.098112	0.851644	10595.710937
6667.798052	0.098181	0.851644	10699.979492
6667.799062	0.098126	0.851644	10799.086914
6668.836282	1.058368	0.842746	444.514557
6668.837162	1.561406	0.842746	1818.552002
6668.838252	1.550563	0.842746	3508.665527
6668.839216	1.507910	0.842746	4962.291016
6668.840082	1.468542	0.842746	6234.048828
6668.841116	1.425652	0.842746	7708.172852
6668.842155	1.383713	0.842746	9145.851562
6668.843043	0.821404	0.842746	9875.257812
6668.843964	0.111042	0.842746	9977.528320
6668.845019	0.098027	0.842746	10080.947266
6668.845960	0.097936	0.842746	10173.104492
6668.846820	0.097987	0.842746	10257.373047
6668.847838	0.098060	0.842746	10357.198242
6668.848886	0.098038	0.842746	10459.942383
6668.849765	0.098035	0.842746	10546.115234
6668.850712	0.098101	0.842746	10639.016602
6668.851763	0.098145	0.842746	10742.166016
6668.852694	0.098009	0.842746	10833.412109
6669.835335	1.179862	0.833674	651.283813
6669.836221	1.569800	0.833674	2042.126465
6669.837095	1.553752	0.833674	3400.105957
6669.837973	1.513231	0.833674	4728.723145
6669.839029	1.467341	0.833674	6278.235352
6669.839928	1.429373	0.833674	7563.241211
6669.840808	1.393733	0.833674	8789.726562
6669.841819	0.991293	0.833674	9791.923828
6669.842729	0.125585	0.833674	9906.206055
6669.843652	0.098064	0.833674	9996.718750
6669.844511	0.098031	0.833674	10080.927734
6669.845558	0.098126	0.833674	10183.666016
6669.846441	0.098035	0.833674	10270.230469
6669.847309	0.098086	0.833674	10355.369141
6669.848272	0.098137	0.833674	10449.875000
6669.849211	0.098042	0.833674	10541.936523
6669.850117	0.098097	0.833674	10630.812500
6669.850991	0.098093	0.833674	10716.545898
6670.890522	1.116478	0.814418	579.452209
6670.891573	1.570708	0.814418	2230.266357
6670.892503	1.546274	0.814418	3668.301514
6670.893371	1.506537	0.814418	4975.975586
6670.894432	1.460248	0.814418	6525.298340
6670.895441	1.418086	0.814418	7956.146973
6670.896314	1.382596	0.814418	9163.153320
6670.897273	0.706501	0.814418	9840.688477
6670.898331	0.100312	0.814418	9946.819336
6670.899253	0.097943	0.814418	10037.123047
6670.900117	0.097976	0.814418	10121.774414
6670.901167	0.098035	0.814418	10224.710937
6670.902159	0.098005	0.814418	10321.932617
6670.903054	0.098057	0.814418	10409.693359
6670.904030	0.098049	0.814418	10505.389648
6670.905066	0.098141	0.814418	10607.063477
6670.905972	0.098002	0.814418	10695.852539
6670.906832	0.098046	0.814418	10780.171875
6671.888405	1.143047	0.820566	578.381714
6671.889290	1.568529	0.820566	1966.529907
6671.890155	1.554024	0.820566	3310.760254
6671.891254	1.507266	0.820566	4967.245117
6671.892222	1.464327	0.820566	6384.713867
6671.893088	1.427856	0.820566	7621.237305
6671.894155	1.384845	0.820566	9098.867187
6671.895197	0.667317	0.820566	9794.210937
6671.896074	0.103015	0.820566	9884.555664
6671.896988	0.098090	0.820566	9974.209961
6671.898057	0.098101	0.820566	10079.079102
6671.898994	0.098068	0.820566	10170.968750
6671.899865	0.098009	0.820566	10256.334961
6671.900886	0.098174	0.820566	10356.570312
6671.901914	0.098027	0.820566	10457.342773
6671.902802	0.098082	0.820566	10544.439453
6671.903750	0.098101	0.820566	10637.438477
6671.904802	0.098086	0.820566	10740.625000
6672.944059	1.060217	0.788379	446.351471
6672.945052	1.563241	0.788379	1998.649658
6672.945932	1.554459	0.788379	3366.573730
6672.946809	1.515945	0.788379	4696.057129
6672.947720	1.473922	0.788379	6038.800293
6672.948728	1.431204	0.788379	7481.453613
6672.949660	1.393652	0.788379	8780.337891
6672.950546	1.154795	0.788379	9803.486328
6672.951540	0.152563	0.788379	9955.134766
6672.952463	0.097928	0.788379	10045.522461
6672.953384	0.097983	0.788379	10135.765625
6672.954248	0.098112	0.788379	10220.534180
6672.955287	0.098104	0.788379	10322.464844
6672.956167	0.098185	0.788379	10408.867187
6672.957032	0.098115	0.788379	10493.737305
6672.958003	0.098229	0.788379	10589.117187
6672.958934	0.098090	0.788379	10680.438477
6672.959850	0.098046	0.788379	10770.248047
6673.940551	1.187780	0.841630	671.095459
6673.941604	1.571847	0.841630	2326.250244
6673.942481	1.545930	0.841630	3682.031006
6673.943399	1.503885	0.841630	5062.597656
6673.944495	1.455992	0.841630	6658.365234
6673.945451	1.416603	0.841630	8012.637695
6673.946320	1.381468	0.841630	9213.133789
6673.947352	0.584700	0.841630	9816.543945
6673.948378	0.098917	0.841630	9918.033203
6673.949274	0.098159	0.841630	10005.983398
6673.950215	0.098137	0.841630	10098.330078
6673.951258	0.098156	0.841630	10200.706055
6673.952199	0.098053	0.841630	10292.973633
6673.953060	0.098203	0.841630	10377.526367
6673.954120	0.098108	0.841630	10481.520508
6673.955137	0.098035	0.841630	10581.221680
6673.956032	0.098097	0.841630	10669.018555
6673.956996	0.098075	0.841630	10763.562500
6674.997173	1.066468	0.782341	446.850281
6674.998225	1.569833	0.782341	2098.314453
6674.999125	1.551420	0.782341	3494.592285
6675.000006	1.512451	0.782341	4827.061523
6675.000947	1.470388	0.782341	6210.696777
6675.001942	1.428256	0.782341	7631.811035
6675.002871	1.390547	0.782341	8923.628906
6675.003734	1.076935	0.782341	9853.023437
6675.004780	0.125966	0.782341	9984.783203
6675.005662	0.097841	0.782341	10071.078125
6675.006524	0.098016	0.782341	10155.568359
6675.007399	0.097928	0.782341	10241.255859
6675.008439	0.097928	0.782341	10343.101562
6675.009334	0.097947	0.782341	10430.763672
6675.010215	0.097925	0.782341	10517.035156
6675.011204	0.098005	0.782341	10613.962891
6675.012152	0.097936	0.782341	10706.805664
6675.013077	0.098024	0.782341	10797.477539
6675.993658	1.188699	0.849630	654.972961
6675.994722	1.571613	0.849630	2327.168701
6675.995617	1.545392	0.849630	3710.294434
6675.996527	1.504054	0.849630	5078.983398
6675.997613	1.456476	0.849630	6660.716309
6675.998568	1.416903	0.849630	8013.858887
6675.999434	1.381600	0.849630	9210.325195
6676.000481	0.578038	0.849630	9815.531250
6676.001493	0.099038	0.849630	9915.757812
6676.002377	0.098046	0.849630	10002.429687
6676.003311	0.098115	0.849630	10094.069336
6676.004369	0.098112	0.849630	10197.871094
6676.005299	0.098020	0.849630	10289.029297
6676.006165	0.098148	0.849630	10374.025391
6676.007212	0.098218	0.849630	10476.859375
6676.008234	0.098053	0.849630	10577.069336
6676.009106	0.098064	0.849630	10662.581055
6676.010060	0.098086	0.849630	10756.155273
6677.049787	1.067538	0.775368	453.703552
6677.050831	1.568141	0.775368	2090.842529
6677.051791	1.549178	0.775368	3578.053711
6677.052671	1.509815	0.775368	4906.690430
6677.053602	1.467924	0.775368	6273.327148
6677.054661	1.423920	0.775368	7781.257812
6677.055554	1.387441	0.775368	9020.243164
6677.056427	0.972173	0.775368	9868.950195
6677.057491	0.109907	0.775368	9985.891602
6677.058435	0.097892	0.775368	10078.301758
6677.059307	0.098115	0.775368	10163.858398
6677.060217	0.098024	0.775368	10253.059570
6677.061289	0.097983	0.775368	10358.097656
6677.062168	0.098104	0.775368	10444.331055
6677.063026	0.097972	0.775368	10528.391602
6677.064039	0.098210	0.775368	10627.878906
6677.065015	0.098020	0.775368	10723.546875
6677.065889	0.098053	0.775368	10809.245117
6678.047775	1.142882	0.839475	587.441406
6678.048664	1.568705	0.839475	1982.020020
6678.049526	1.553324	0.839475	3320.985352
6678.050652	1.505841	0.839475	5016.562500
6678.051622	1.462581	0.839475	6435.265625
6678.052485	1.425945	0.839475	7665.855957
6678.053501	1.384655	0.839475	9072.665039
6678.054562	0.662560	0.839475	9775.640625
6678.055443	0.102312	0.839475	9865.777344
6678.056371	0.098101	0.839475	9956.814453
6678.057447	0.098247	0.839475	10062.528320
6678.058388	0.098104	0.839475	10154.844727
6678.059260	0.098093	0.839475	10240.381836
6678.060298	0.098104	0.839475	10342.213867
6678.061316	0.097991	0.839475	10441.968750
6678.062203	0.098064	0.839475	10528.951172
6678.063153	0.098177	0.839475	10622.219727
6678.064217	0.098159	0.839475	10726.661133
6679.101902	1.087606	0.774611	473.108704
6679.102772	1.562871	0.774611	1832.806641
6679.103883	1.549453	0.774611	3554.249023
6679.104841	1.506694	0.774611	4997.662109
6679.105710	1.467674	0.774611	6273.071289
6679.106781	1.423074	0.774611	7797.183105
6679.107805	1.381919	0.774611	9212.267578
6679.108690	0.760635	0.774611	9885.429687
6679.109630	0.107150	0.774611	9986.150391
6679.110679	0.098082	0.774611	10089.039062
6679.111614	0.098141	0.774611	10180.800781
6679.112474	0.097991	0.774611	10265.073242
6679.113493	0.098159	0.774611	10365.097656
6679.114529	0.098027	0.774611	10466.654297
6679.115424	0.098101	0.774611	10554.454102
6679.116363	0.098152	0.774611	10646.619141
6679.117409	0.098104	0.774611	10749.236328
6679.118339	0.098079	0.774611	10840.449219
6680.101339	1.098640	0.844204	491.092163
6680.102225	1.564142	0.844204	1876.921875
6680.103091	1.558096	0.844204	3226.232910
6680.103954	1.518395	0.844204	4536.607422
6680.104969	1.474149	0.844204	6032.868652
6680.105899	1.435173	0.844204	7367.580078
6680.106777	1.398479	0.844204	8595.444336
6680.107824	1.117863	0.844204	9765.846680
6680.108729	0.151670	0.844204	9903.108398
6680.109644	0.098016	0.844204	9992.792969
6680.110505	0.098104	0.844204	10077.260742
6680.111499	0.098086	0.844204	10174.757812
6680.112426	0.098009	0.844204	10265.612305
6680.113291	0.098185	0.844204	10350.541992
6680.114313	0.098101	0.844204	10450.800781
6680.115185	0.098090	0.844204	10536.334961
6680.116096	0.098013	0.844204	10625.625000
6680.116974	0.098075	0.844204	10711.734375
6681.154509	1.094692	0.772943	486.043396
6681.155390	1.564607	0.772943	1864.462158
6681.156390	1.553481	0.772943	3417.943359
6681.157434	1.507610	0.772943	4991.888184
6681.158335	1.466601	0.772943	6313.295898
6681.159205	1.428344	0.772943	7555.955078
6681.160313	1.385120	0.772943	9090.667969
6681.161289	0.773690	0.772943	9845.789062
6681.162149	0.107823	0.772943	9938.517578
6681.163200	0.098104	0.772943	10041.625000
6681.164244	0.098079	0.772943	10144.019531
6681.165123	0.098112	0.772943	10230.259766
6681.166040	0.098145	0.772943	10320.257812
6681.167128	0.098053	0.772943	10426.939453
6681.168072	0.098108	0.772943	10519.553711
6681.168930	0.098042	0.772943	10603.673828
6681.169957	0.098145	0.772943	10704.468750
6681.170984	0.098097	0.772943	10805.213867
6682.154947	1.076455	0.828401	462.875702
6682.155820	1.562834	0.828401	1827.230103
6682.156681	1.557535	0.828401	3168.268066
6682.157746	1.513396	0.828401	4780.034668
6682.158637	1.472977	0.828401	6092.457520
6682.159510	1.435862	0.828401	7345.964844
6682.160499	1.395762	0.828401	8726.373047
6682.161427	1.123583	0.828401	9769.057617
6682.162354	0.155325	0.828401	9913.043945
6682.163229	0.097899	0.828401	9998.706055
6682.164265	0.097998	0.828401	10100.232422
6682.165156	0.098101	0.828401	10187.639648
6682.166025	0.098057	0.828401	10272.850586
6682.166990	0.098192	0.828401	10367.606445
6682.167945	0.098002	0.828401	10461.198242
6682.168853	0.098090	0.828401	10550.263672
6682.169720	0.098053	0.828401	10635.275391
6682.170756	0.098075	0.828401	10736.880859
6683.206703	1.164880	0.770103	611.562195
6683.207708	1.571840	0.770103	2191.260986
6683.208591	1.549318	0.770103	3559.308594
6683.209593	1.504625	0.770103	5066.942871
6683.210647	1.458633	0.770103	6604.341797
6683.211537	1.420862	0.770103	7868.908691
6683.212423	1.383655	0.770103	9094.827148
6683.213526	0.605142	0.770103	9762.298828
6683.214479	0.099825	0.770103	9857.432617
6683.215346	0.098002	0.770103	9942.400391
6683.216361	0.098046	0.770103	10041.916992
6683.217388	0.098068	0.770103	10142.632812
6683.218278	0.098024	0.770103	10229.874023
6683.219198	0.098152	0.770103	10320.173828
6683.220276	0.098093	0.770103	10425.917969
6683.221221	0.098115	0.770103	10518.636719
6683.222090	0.098097	0.770103	10603.882812
6683.223135	0.098156	0.770103	10706.455078
6684.208579	1.068655	0.794164	455.246948
6684.209493	1.561988	0.794164	1882.904419
6684.210578	1.549585	0.794164	3564.204102
6684.211474	1.509122	0.794164	4916.377930
6684.212340	1.469846	0.794164	6189.264648
6684.213394	1.425912	0.794164	7692.175781
6684.214351	1.387273	0.794164	9019.795898
6684.215230	0.962494	0.794164	9865.828125
6684.216127	0.125874	0.794164	9978.737305
6684.217230	0.098068	0.794164	10086.906250
6684.218101	0.098068	0.794164	10172.323242
6684.218961	0.098174	0.794164	10256.752930
6684.219968	0.098174	0.794164	10355.614258
6684.220940	0.097972	0.794164	10450.843750
6684.221821	0.098159	0.794164	10537.322266
6684.222681	0.098097	0.794164	10621.685547
6684.223793	0.098071	0.794164	10730.741211
6684.224698	0.098035	0.794164	10819.462891
6685.258188	1.076173	0.766905	464.906830
6685.259157	1.563223	0.766905	1979.669556
6685.260213	1.547893	0.766905	3614.244629
6685.261130	1.506654	0.766905	4995.846191
6685.261989	1.467059	0.766905	6256.049805
6685.263059	1.423209	0.766905	7778.883789
6685.264068	1.382571	0.766905	9173.897461
6685.264950	0.795344	0.766905	9875.390625
6685.265934	0.107501	0.766905	9981.171875
6685.266980	0.098167	0.766905	10083.854492
6685.267881	0.098148	0.766905	10172.286133
6685.268747	0.098196	0.766905	10257.323242
6685.269846	0.098177	0.766905	10365.220703
6685.270809	0.098064	0.766905	10459.656250
6685.271693	0.098181	0.766905	10546.448242
6685.272687	0.098196	0.766905	10644.054687
6685.273742	0.098137	0.766905	10747.589844
6685.274636	0.098046	0.766905	10835.242187
6686.262811	1.154982	0.791086	586.730652
6686.263851	1.571492	0.791086	2221.082031
6686.264740	1.548413	0.791086	3597.621094
6686.265714	1.505497	0.791086	5063.975098
6686.266760	1.458570	0.791086	6589.639648
6686.267676	1.420148	0.791086	7890.495117
6686.268539	1.384402	0.791086	9085.234375
6686.269606	0.651379	0.791086	9780.255859
6686.270614	0.099496	0.791086	9880.547852
6686.271503	0.098024	0.791086	9967.690430
6686.272480	0.098196	0.791086	10063.627930
6686.273539	0.098042	0.791086	10167.454102
6686.274447	0.098005	0.791086	10256.443359
6686.275307	0.098097	0.791086	10340.806641
6686.276413	0.098159	0.791086	10449.371094
6686.277401	0.097921	0.791086	10546.117187
6686.278289	0.098071	0.791086	10633.204102
6686.279283	0.098038	0.791086	10730.654297
6687.310336	1.133657	0.752826	546.422791
6687.311222	1.567269	0.752826	1935.023193
6687.312095	1.556323	0.752826	3293.693359
6687.313027	1.515619	0.752826	4706.250000
6687.314033	1.470568	0.752826	6185.641113
6687.314959	1.431401	0.752826	7511.118652
6687.315832	1.395458	0.752826	8729.353516
6687.316882	1.018619	0.752826	9798.904297
6687.317759	0.134187	0.752826	9916.585937
6687.318620	0.097961	0.752826	10000.930664
6687.319482	0.098130	0.752826	10085.518555
6687.320532	0.098038	0.752826	10188.458984
6687.321428	0.098013	0.752826	10276.278320
6687.322311	0.098068	0.752826	10362.872070
6687.323290	0.098049	0.752826	10458.862305
6687.324229	0.098027	0.752826	10550.910156
6687.325151	0.098016	0.752826	10641.281250
6687.326014	0.098068	0.752826	10725.914062
6688.316445	1.149412	0.781555	582.751709
6688.317374	1.569770	0.781555	2041.068481
6688.318239	1.553544	0.781555	3384.883789
6688.319289	1.507456	0.781555	4967.712891
6688.320320	1.461746	0.781555	6474.772461
6688.321201	1.424333	0.781555	7729.610352
6688.322160	1.385918	0.781555	9058.706055
6688.323210	0.690542	0.781555	9783.775391
6688.324124	0.102341	0.781555	9877.315430
6688.324989	0.097994	0.781555	9962.081055
6688.326047	0.098071	0.781555	10065.840820
6688.327054	0.098060	0.781555	10164.587891
6688.327944	0.098035	0.781555	10251.838867
6688.328907	0.098196	0.781555	10346.401367
6688.329969	0.098082	0.781555	10450.564453
6688.330887	0.098009	0.781555	10540.537109
6688.331753	0.098053	0.781555	10625.451172
6688.332835	0.098097	0.781555	10731.591797
6689.360838	1.085896	0.784605	472.364716
6689.361717	1.563820	0.784605	1846.962158
6689.362719	1.553375	0.784605	3403.444092
6689.363725	1.508815	0.784605	4921.311523
6689.364624	1.468531	0.784605	6241.521484
6689.365490	1.430651	0.784605	7480.464844
6689.366581	1.388320	0.784605	8995.122070
6689.367486	0.948047	0.784605	9853.104492
6689.368355	0.123582	0.784605	9960.497070
6689.369364	0.098101	0.784605	10059.480469
6689.370356	0.098137	0.784605	10156.833008
6689.371225	0.098156	0.784605	10242.129883
6689.372089	0.098210	0.784605	10326.983398
6689.373160	0.098079	0.784605	10432.025391
6689.374074	0.098049	0.784605	10521.642578
6689.374952	0.098046	0.784605	10607.726562
6689.375935	0.098163	0.784605	10704.220703
6689.376935	0.098024	0.784605	10802.244141
6690.370500	1.072145	0.798869	464.238678
6690.371367	1.562666	0.798869	1819.070068
6690.372421	1.551687	0.798869	3454.548340
6690.373440	1.506522	0.798869	4989.694336
6690.374337	1.466224	0.798869	6304.897461
6690.375297	1.426567	0.798869	7674.402344
6690.376345	1.383999	0.798869	9124.833008
6690.377284	0.769980	0.798869	9847.844727
6690.378143	0.108021	0.798869	9940.634766
6690.379221	0.098046	0.798869	10046.328125
6690.380211	0.097994	0.798869	10143.342773
6690.381088	0.098042	0.798869	10229.325195
6690.382065	0.098064	0.798869	10325.133789
6690.383119	0.098108	0.798869	10428.539062
6690.384019	0.098020	0.798869	10516.756836
6690.384877	0.098027	0.798869	10600.864258
6690.385962	0.098119	0.798869	10707.323242
6690.386961	0.098009	0.798869	10805.234375
6691.413459	1.103031	0.782248	493.054871
6691.414341	1.564900	0.782248	1873.296631
6691.415337	1.553035	0.782248	3420.119141
6691.416405	1.505929	0.782248	5028.451172
6691.417313	1.464829	0.782248	6358.516113
6691.418182	1.426567	0.782248	7598.203125
6691.419306	1.383065	0.782248	9152.768555
6691.420289	0.698174	0.782248	9839.073242
6691.421156	0.104150	0.782248	9929.372070
6691.422198	0.098167	0.782248	10031.661133
6691.423217	0.098079	0.782248	10131.603516
6691.424091	0.098123	0.782248	10217.362305
6691.424998	0.098130	0.782248	10306.366211
6691.426063	0.098053	0.782248	10410.792969
6691.427014	0.098082	0.782248	10504.069336
6691.427876	0.098104	0.782248	10588.634766
6691.428908	0.098163	0.782248	10689.938477
6691.429940	0.098115	0.782248	10791.193359
6692.422678	1.145160	0.807276	573.725098
6692.423616	1.569880	0.807276	2046.272827
6692.424479	1.553397	0.807276	3386.854492
6692.425533	1.507368	0.807276	4975.620605
6692.426565	1.461420	0.807276	6483.805664
6692.427452	1.424055	0.807276	7746.942383
6692.428404	1.385779	0.807276	9066.204102
6692.429473	0.675773	0.807276	9788.605469
6692.430377	0.101792	0.807276	9880.625000
6692.431288	0.098053	0.807276	9969.951172
6692.432177	0.098145	0.807276	10057.201172
6692.433128	0.098152	0.807276	10150.543945
6692.434047	0.098104	0.807276	10240.702148
6692.434967	0.097980	0.807276	10330.843750
6692.435838	0.098126	0.807276	10416.311523
6692.436823	0.098027	0.807276	10512.868164
6692.437771	0.098064	0.807276	10605.833008
6692.438650	0.098093	0.807276	10692.056641
6693.465138	1.168037	0.781149	634.244141
6693.466200	1.571323	0.781149	2302.989502
6693.467094	1.545535	0.781149	3684.697510
6693.467968	1.504453	0.781149	4999.589355
6693.469073	1.457450	0.781149	6610.071289
6693.470044	1.417174	0.781149	7986.147461
6693.470914	1.382091	0.781149	9188.566406
6693.471967	0.584370	0.781149	9803.908203
6693.473002	0.098983	0.781149	9906.355469
6693.473895	0.098020	0.781149	9993.887695
6693.474808	0.098042	0.781149	10083.400391
6693.475885	0.098141	0.781149	10189.097656
6693.476832	0.098027	0.781149	10281.929687
6693.477695	0.098101	0.781149	10366.590820
6693.478731	0.098159	0.781149	10468.284180
6693.479748	0.098016	0.781149	10567.966797
6693.480643	0.097972	0.781149	10655.652344
6693.481588	0.098090	0.781149	10748.346680
6694.476299	1.141479	0.795119	559.324951
6694.477177	1.567152	0.795119	1935.284546
6694.478039	1.556063	0.795119	3276.611084
6694.479093	1.510635	0.795119	4868.820312
6694.480043	1.467737	0.795119	6263.170410
6694.480919	1.430801	0.795119	7516.551758
6694.481840	1.392590	0.795119	8799.127930
6694.482933	0.896334	0.795119	9778.821289
6694.483810	0.115276	0.795119	9879.917969
6694.484676	0.098035	0.795119	9964.816406
6694.485689	0.098137	0.795119	10064.229492
6694.486646	0.098130	0.795119	10158.139648
6694.487521	0.098024	0.795119	10243.910156
6694.488408	0.098218	0.795119	10331.029297
6694.489499	0.098002	0.795119	10437.949219
6694.490393	0.097980	0.795119	10525.542969
6694.491256	0.098097	0.795119	10610.200195
6694.492318	0.098210	0.795119	10714.500000
6695.516635	1.086482	0.799095	486.743896
6695.517497	1.563604	0.799095	1834.570190
6695.518530	1.551654	0.799095	3437.428711
6695.519564	1.505867	0.799095	4994.495117
6695.520460	1.465814	0.799095	6307.864746
6695.521413	1.426238	0.799095	7667.069336
6695.522466	1.383380	0.799095	9123.768555
6695.523406	0.758943	0.799095	9837.174805
6695.524277	0.106868	0.799095	9930.256836
6695.525368	0.098115	0.799095	10037.300781
6695.526359	0.098082	0.799095	10134.500000
6695.527246	0.098057	0.799095	10221.476562
6695.528205	0.098119	0.799095	10315.572266
6695.529248	0.098196	0.799095	10417.990234
6695.530165	0.098130	0.799095	10507.975586
6695.531029	0.098137	0.799095	10592.766602
6695.532117	0.098181	0.799095	10699.587891
6695.533105	0.098016	0.799095	10796.427734
6696.528443	1.179642	0.795300	632.288269
6696.529488	1.571550	0.795300	2274.558350
6696.530368	1.547062	0.795300	3635.972656
6696.531342	1.503951	0.795300	5100.821289
6696.532409	1.456498	0.795300	6654.904297
6696.533317	1.418079	0.795300	7942.519531
6696.534189	1.382388	0.795300	9147.961914
6696.535240	0.609093	0.795300	9788.119141
6696.536245	0.099250	0.795300	9887.866211
6696.537135	0.098057	0.795300	9975.136719
6696.538105	0.098086	0.795300	10070.280273
6696.539170	0.098068	0.795300	10174.722656
6696.540078	0.098130	0.795300	10263.824219
6696.540938	0.098075	0.795300	10348.168945
6696.542033	0.098174	0.795300	10455.668945
6696.543022	0.098016	0.795300	10552.607422
6696.543922	0.098097	0.795300	10640.894531
6696.544902	0.098152	0.795300	10737.083008
6697.570747	1.075693	0.795417	455.018280
6697.571823	1.569412	0.795417	2143.705078
6697.572828	1.545161	0.795417	3696.592041
6697.573726	1.505116	0.795417	5048.186035
6697.574706	1.461724	0.795417	6480.675293
6697.575769	1.417639	0.795417	7987.625977
6697.576685	1.380004	0.795417	9251.708984
6697.577606	0.679146	0.795417	9877.202148
6697.578481	0.103909	0.795417	9968.122070
6697.579432	0.097987	0.795417	10061.307617
6697.580371	0.098082	0.795417	10153.407227
6697.581256	0.098082	0.795417	10240.209961
6697.582168	0.098119	0.795417	10329.694336
6697.583128	0.098086	0.795417	10423.856445
6697.584052	0.098049	0.795417	10514.454102
6697.584938	0.098163	0.795417	10601.426758
6697.585890	0.098101	0.795417	10694.818359
6697.586815	0.097994	0.795417	10785.462891
6698.580412	1.061814	0.802031	451.270935
6698.581430	1.567053	0.802031	2046.531006
6698.582482	1.546534	0.802031	3673.485352
6698.583377	1.505698	0.802031	5021.084961
6698.584306	1.464375	0.802031	6381.489258
6698.585372	1.419877	0.802031	7895.077637
6698.586313	1.381989	0.802031	9195.529297
6698.587184	0.797604	0.802031	9890.242187
6698.588242	0.102847	0.802031	9999.053711
6698.589252	0.098053	0.802031	10098.086914
6698.590139	0.098152	0.802031	10185.147461
6698.591086	0.098060	0.802031	10278.010742
6698.592130	0.098079	0.802031	10380.405273
6698.593060	0.098093	0.802031	10471.631836
6698.593916	0.098181	0.802031	10555.674805
6698.594948	0.098134	0.802031	10656.948242
6698.595972	0.098137	0.802031	10757.440430
6698.596861	0.098057	0.802031	10844.612305
6699.625006	1.167059	0.755359	612.706116
6699.626014	1.571653	0.755359	2196.932129
6699.626900	1.548984	0.755359	3569.332275
6699.627905	1.504556	0.755359	5081.410645
6699.628953	1.458365	0.755359	6609.777344
6699.629839	1.420206	0.755359	7868.080078
6699.630721	1.383307	0.755359	9088.156250
6699.631817	0.613400	0.755359	9760.442383
6699.632779	0.099771	0.755359	9856.421875
6699.633653	0.098082	0.755359	9942.145508
6699.634677	0.098038	0.755359	10042.537109
6699.635716	0.098020	0.755359	10144.379883
6699.636610	0.098031	0.755359	10232.019531
6699.637531	0.098108	0.755359	10322.376953
6699.638592	0.098086	0.755359	10426.446289
6699.639541	0.098126	0.755359	10519.568359
6699.640408	0.098097	0.755359	10604.618164
6699.641433	0.098108	0.755359	10705.178711
6700.632539	1.103855	0.758393	504.461700
6700.633413	1.565032	0.758393	1872.299316
6700.634395	1.553269	0.758393	3397.609375
6700.635457	1.506489	0.758393	4997.500977
6700.636364	1.465686	0.758393	6326.877930
6700.637235	1.427505	0.758393	7570.234863
6700.638328	1.384757	0.758393	9083.774414
6700.639302	0.756910	0.758393	9821.004883
6700.640187	0.106091	0.758393	9914.895508
6700.641186	0.098104	0.758393	10012.901367
6700.642232	0.098119	0.758393	10115.534180
6700.643126	0.098049	0.758393	10203.190430
6700.644000	0.098035	0.758393	10288.873047
6700.645099	0.098079	0.758393	10396.661133
6700.646067	0.098090	0.758393	10491.612305
6700.646934	0.098119	0.758393	10576.681641
6700.647973	0.098170	0.758393	10678.680664
6700.649002	0.098174	0.758393	10779.701172
6701.680058	1.062272	0.739186	449.340942
6701.681053	1.565244	0.739186	2006.758789
6701.682119	1.547091	0.739186	3655.957764
6701.683009	1.506453	0.739186	4996.700684
6701.683899	1.465411	0.739186	6300.916992
6701.685000	1.420474	0.739186	7864.858398
6701.685958	1.382153	0.739186	9188.960937
6701.686834	0.798051	0.739186	9888.052734
6701.687874	0.103385	0.739186	9995.573242
6701.688899	0.098130	0.739186	10096.156250
6701.689790	0.098174	0.739186	10183.628906
6701.690704	0.098210	0.739186	10273.393555
6701.691752	0.098210	0.739186	10376.318359
6701.692698	0.098115	0.739186	10469.135742
6701.693561	0.098093	0.739186	10553.790039
6701.694612	0.098225	0.739186	10657.024414
6701.695634	0.098093	0.739186	10757.275391
6701.696510	0.098174	0.739186	10843.275391
6702.685251	1.191603	0.692586	663.722717
6702.686151	1.570356	0.692586	2077.043457
6702.687018	1.551519	0.692586	3422.209961
6702.688117	1.504281	0.692586	5075.415039
6702.689111	1.459936	0.692586	6526.591797
6702.689991	1.423044	0.692586	7778.871094
6702.690998	1.382607	0.692586	9171.157227
6702.692074	0.584000	0.692586	9799.541016
6702.692945	0.100529	0.692586	9887.101562
6702.693835	0.098086	0.692586	9974.398437
6702.694922	0.098199	0.692586	10081.141602
6702.695878	0.098035	0.692586	10174.862305
6702.696745	0.098119	0.692586	10259.931641
6702.697754	0.098159	0.692586	10358.974609
6702.698781	0.098115	0.692586	10459.739258
6702.699670	0.098090	0.692586	10546.940430
6702.700598	0.098174	0.692586	10638.045898
6702.701656	0.098027	0.692586	10741.758789
6703.734319	1.179741	0.720998	629.981750
6703.735362	1.571821	0.720998	2269.391357
6703.736260	1.546681	0.720998	3658.310791
6703.737200	1.504731	0.720998	5072.758301
6703.738262	1.457688	0.720998	6620.822754
6703.739194	1.418621	0.720998	7942.977051
6703.740055	1.383479	0.720998	9134.152344
6703.741126	0.619534	0.720998	9797.672852
6703.742144	0.099360	0.720998	9898.821289
6703.743022	0.098005	0.720998	9984.870117
6703.744000	0.098104	0.720998	10080.816406
6703.745033	0.098097	0.720998	10182.150391
6703.745947	0.098042	0.720998	10271.760742
6703.746806	0.098090	0.720998	10356.019531
6703.747860	0.098093	0.720998	10459.410156
6703.748864	0.097958	0.720998	10557.759766
6703.749750	0.098079	0.720998	10644.657227
6703.750718	0.098148	0.720998	10739.665039
6704.735701	1.079583	0.688505	470.697998
6704.736577	1.563750	0.688505	1840.542969
6704.737503	1.555803	0.688505	3281.216797
6704.738562	1.510452	0.688505	4880.785156
6704.739442	1.469780	0.688505	6174.191895
6704.740310	1.433060	0.688505	7418.088379
6704.741323	1.391631	0.688505	8827.810547
6704.742310	0.991805	0.688505	9806.722656
6704.743186	0.127511	0.688505	9918.421875
6704.744087	0.097983	0.688505	10006.705078
6704.745164	0.098009	0.688505	10112.260742
6704.746054	0.098057	0.688505	10199.531250
6704.746918	0.097994	0.688505	10284.198242
6704.747986	0.098097	0.688505	10388.965820
6704.748960	0.097928	0.688505	10484.347656
6704.749835	0.098031	0.688505	10570.125000
6704.750720	0.098005	0.688505	10656.859375
6704.751805	0.098057	0.688505	10763.250977
6705.789368	1.063356	0.690254	446.609436
6705.790321	1.562175	0.690254	1935.362549
6705.791386	1.548314	0.690254	3584.317139
6705.792320	1.506390	0.690254	4991.285645
6705.793191	1.466884	0.690254	6268.941406
6705.794250	1.423001	0.690254	7775.898926
6705.795270	1.381835	0.690254	9185.370117
6705.796171	0.762722	0.690254	9872.583008
6705.797135	0.106648	0.690254	9975.391602
6705.798183	0.098104	0.690254	10078.205078
6705.799096	0.098064	0.690254	10167.737305
6705.799961	0.098115	0.690254	10252.607422
6705.801023	0.098167	0.690254	10356.860352
6705.802008	0.098038	0.690254	10453.427734
6705.802893	0.098104	0.690254	10540.250000
6705.803874	0.098123	0.690254	10636.507812
6705.804914	0.098064	0.690254	10738.494141
6705.805810	0.098123	0.690254	10826.412109
6706.786752	1.067791	0.710190	453.810974
6706.787620	1.561919	0.710190	1809.556641
6706.788662	1.551826	0.710190	3426.559570
6706.789598	1.510990	0.710190	4840.846191
6706.790483	1.471249	0.710190	6142.901367
6706.791506	1.429270	0.710190	7605.044434
6706.792421	1.390624	0.710190	8877.464844
6706.793351	1.029130	0.710190	9834.555664
6706.794213	0.136644	0.710190	9952.342773
6706.795268	0.097914	0.710190	10055.641602
6706.796140	0.098009	0.710190	10141.105469
6706.797014	0.098181	0.710190	10226.916016
6706.797998	0.098159	0.710190	10323.504883
6706.798916	0.098027	0.710190	10413.494141
6706.799837	0.098024	0.710190	10503.774414
6706.800702	0.098086	0.710190	10588.619141
6706.801742	0.098090	0.710190	10690.632812
6706.802636	0.098020	0.710190	10778.262695
6707.843614	1.136843	0.666902	595.705872
6707.844677	1.571180	0.666902	2265.870605
6707.845594	1.545703	0.666902	3683.280273
6707.846462	1.505160	0.666902	4989.758789
6707.847553	1.458248	0.666902	6580.708008
6707.848551	1.416537	0.666902	7994.412109
6707.849449	1.380685	0.666902	9234.267578
6707.850461	0.624423	0.666902	9866.183594
6707.851511	0.099357	0.666902	9970.507812
6707.852386	0.098090	0.666902	10056.335937
6707.853247	0.098104	0.666902	10140.803711
6707.854341	0.098181	0.666902	10248.213867
6707.855304	0.098046	0.666902	10342.631836
6707.856166	0.098177	0.666902	10427.260742
6707.857206	0.098192	0.666902	10529.380859
6707.858240	0.098027	0.666902	10630.741211
6707.859109	0.098086	0.666902	10715.977539
6707.859991	0.098112	0.666902	10802.511719
6708.838863	1.094366	0.703849	483.709961
6708.839792	1.566515	0.703849	1939.002197
6708.840659	1.555228	0.703849	3287.385254
6708.841705	1.510946	0.703849	4867.834961
6708.842584	1.470417	0.703849	6160.332031
6708.843465	1.433591	0.703849	7423.326172
6708.844440	1.394231	0.703849	8782.701172
6708.845383	1.074954	0.703849	9796.382812
6708.846308	0.138805	0.703849	9924.777344
6708.847181	0.097932	0.703849	10010.272461
6708.848216	0.098177	0.703849	10111.885742
6708.849112	0.098097	0.703849	10199.780273
6708.849988	0.098005	0.703849	10285.632812
6708.850940	0.098192	0.703849	10379.111328
6708.851915	0.098016	0.703849	10474.677734
6708.852833	0.098156	0.703849	10564.784180
6708.853695	0.098130	0.703849	10649.372070
6708.854726	0.098163	0.703849	10750.578125
6709.896120	1.067073	0.671014	449.237640
6709.897181	1.568826	0.671014	2113.761719
6709.898189	1.546080	0.671014	3672.210693
6709.899088	1.505651	0.671014	5025.790527
6709.900059	1.462969	0.671014	6446.333008
6709.901116	1.418437	0.671014	7945.621582
6709.902047	1.381055	0.671014	9231.383789
6709.902918	0.744562	0.671014	9879.897461
6709.904015	0.100635	0.671014	9990.293945
6709.904997	0.098031	0.671014	10086.560547
6709.905888	0.098046	0.671014	10173.918945
6709.906891	0.098152	0.671014	10272.365234
6709.907932	0.097980	0.671014	10374.362305
6709.908815	0.098046	0.671014	10460.936523
6709.909675	0.098086	0.671014	10545.290039
6709.910778	0.098141	0.671014	10653.539062
6709.911738	0.098046	0.671014	10747.663086
6709.912593	0.098064	0.671014	10831.507812
